#  E (eV)   dos(E)     Int dos(E) EFermi =   12.074 eV
 -16.000  0.0000E+00  0.8000E+01
 -15.990  0.0000E+00  0.8000E+01
 -15.980  0.0000E+00  0.8000E+01
 -15.970  0.0000E+00  0.8000E+01
 -15.960  0.0000E+00  0.8000E+01
 -15.950  0.0000E+00  0.8000E+01
 -15.940  0.0000E+00  0.8000E+01
 -15.930  0.0000E+00  0.8000E+01
 -15.920  0.0000E+00  0.8000E+01
 -15.910  0.0000E+00  0.8000E+01
 -15.900  0.0000E+00  0.8000E+01
 -15.890  0.0000E+00  0.8000E+01
 -15.880  0.0000E+00  0.8000E+01
 -15.870  0.0000E+00  0.8000E+01
 -15.860  0.0000E+00  0.8000E+01
 -15.850  0.0000E+00  0.8000E+01
 -15.840  0.0000E+00  0.8000E+01
 -15.830  0.0000E+00  0.8000E+01
 -15.820  0.0000E+00  0.8000E+01
 -15.810  0.0000E+00  0.8000E+01
 -15.800  0.0000E+00  0.8000E+01
 -15.790  0.0000E+00  0.8000E+01
 -15.780  0.0000E+00  0.8000E+01
 -15.770  0.0000E+00  0.8000E+01
 -15.760  0.0000E+00  0.8000E+01
 -15.750  0.0000E+00  0.8000E+01
 -15.740  0.0000E+00  0.8000E+01
 -15.730  0.0000E+00  0.8000E+01
 -15.720  0.0000E+00  0.8000E+01
 -15.710  0.0000E+00  0.8000E+01
 -15.700  0.0000E+00  0.8000E+01
 -15.690  0.0000E+00  0.8000E+01
 -15.680  0.0000E+00  0.8000E+01
 -15.670  0.0000E+00  0.8000E+01
 -15.660  0.0000E+00  0.8000E+01
 -15.650  0.0000E+00  0.8000E+01
 -15.640  0.0000E+00  0.8000E+01
 -15.630  0.0000E+00  0.8000E+01
 -15.620  0.0000E+00  0.8000E+01
 -15.610  0.0000E+00  0.8000E+01
 -15.600  0.0000E+00  0.8000E+01
 -15.590  0.0000E+00  0.8000E+01
 -15.580  0.0000E+00  0.8000E+01
 -15.570  0.0000E+00  0.8000E+01
 -15.560  0.0000E+00  0.8000E+01
 -15.550  0.0000E+00  0.8000E+01
 -15.540  0.0000E+00  0.8000E+01
 -15.530  0.0000E+00  0.8000E+01
 -15.520  0.0000E+00  0.8000E+01
 -15.510  0.0000E+00  0.8000E+01
 -15.500  0.0000E+00  0.8000E+01
 -15.490  0.0000E+00  0.8000E+01
 -15.480  0.0000E+00  0.8000E+01
 -15.470  0.0000E+00  0.8000E+01
 -15.460  0.0000E+00  0.8000E+01
 -15.450  0.0000E+00  0.8000E+01
 -15.440  0.0000E+00  0.8000E+01
 -15.430  0.0000E+00  0.8000E+01
 -15.420  0.0000E+00  0.8000E+01
 -15.410  0.0000E+00  0.8000E+01
 -15.400  0.0000E+00  0.8000E+01
 -15.390  0.0000E+00  0.8000E+01
 -15.380  0.0000E+00  0.8000E+01
 -15.370  0.0000E+00  0.8000E+01
 -15.360  0.0000E+00  0.8000E+01
 -15.350  0.0000E+00  0.8000E+01
 -15.340  0.0000E+00  0.8000E+01
 -15.330  0.0000E+00  0.8000E+01
 -15.320  0.0000E+00  0.8000E+01
 -15.310  0.0000E+00  0.8000E+01
 -15.300  0.0000E+00  0.8000E+01
 -15.290  0.0000E+00  0.8000E+01
 -15.280  0.0000E+00  0.8000E+01
 -15.270  0.0000E+00  0.8000E+01
 -15.260  0.0000E+00  0.8000E+01
 -15.250  0.0000E+00  0.8000E+01
 -15.240  0.0000E+00  0.8000E+01
 -15.230  0.0000E+00  0.8000E+01
 -15.220  0.0000E+00  0.8000E+01
 -15.210  0.0000E+00  0.8000E+01
 -15.200  0.0000E+00  0.8000E+01
 -15.190  0.0000E+00  0.8000E+01
 -15.180  0.0000E+00  0.8000E+01
 -15.170  0.0000E+00  0.8000E+01
 -15.160  0.0000E+00  0.8000E+01
 -15.150  0.0000E+00  0.8000E+01
 -15.140  0.0000E+00  0.8000E+01
 -15.130  0.0000E+00  0.8000E+01
 -15.120  0.0000E+00  0.8000E+01
 -15.110  0.0000E+00  0.8000E+01
 -15.100  0.0000E+00  0.8000E+01
 -15.090  0.0000E+00  0.8000E+01
 -15.080  0.0000E+00  0.8000E+01
 -15.070  0.0000E+00  0.8000E+01
 -15.060  0.0000E+00  0.8000E+01
 -15.050  0.0000E+00  0.8000E+01
 -15.040  0.0000E+00  0.8000E+01
 -15.030  0.0000E+00  0.8000E+01
 -15.020  0.0000E+00  0.8000E+01
 -15.010  0.0000E+00  0.8000E+01
 -15.000  0.0000E+00  0.8000E+01
 -14.990  0.0000E+00  0.8000E+01
 -14.980  0.0000E+00  0.8000E+01
 -14.970  0.0000E+00  0.8000E+01
 -14.960  0.0000E+00  0.8000E+01
 -14.950  0.0000E+00  0.8000E+01
 -14.940  0.0000E+00  0.8000E+01
 -14.930  0.0000E+00  0.8000E+01
 -14.920  0.0000E+00  0.8000E+01
 -14.910  0.0000E+00  0.8000E+01
 -14.900  0.0000E+00  0.8000E+01
 -14.890  0.0000E+00  0.8000E+01
 -14.880  0.0000E+00  0.8000E+01
 -14.870  0.0000E+00  0.8000E+01
 -14.860  0.0000E+00  0.8000E+01
 -14.850  0.0000E+00  0.8000E+01
 -14.840  0.0000E+00  0.8000E+01
 -14.830  0.0000E+00  0.8000E+01
 -14.820  0.0000E+00  0.8000E+01
 -14.810  0.0000E+00  0.8000E+01
 -14.800  0.0000E+00  0.8000E+01
 -14.790  0.0000E+00  0.8000E+01
 -14.780  0.0000E+00  0.8000E+01
 -14.770  0.0000E+00  0.8000E+01
 -14.760  0.0000E+00  0.8000E+01
 -14.750  0.0000E+00  0.8000E+01
 -14.740  0.0000E+00  0.8000E+01
 -14.730  0.0000E+00  0.8000E+01
 -14.720  0.0000E+00  0.8000E+01
 -14.710  0.0000E+00  0.8000E+01
 -14.700  0.0000E+00  0.8000E+01
 -14.690  0.0000E+00  0.8000E+01
 -14.680  0.0000E+00  0.8000E+01
 -14.670  0.0000E+00  0.8000E+01
 -14.660  0.0000E+00  0.8000E+01
 -14.650  0.0000E+00  0.8000E+01
 -14.640  0.0000E+00  0.8000E+01
 -14.630  0.0000E+00  0.8000E+01
 -14.620  0.0000E+00  0.8000E+01
 -14.610  0.0000E+00  0.8000E+01
 -14.600  0.0000E+00  0.8000E+01
 -14.590  0.0000E+00  0.8000E+01
 -14.580  0.0000E+00  0.8000E+01
 -14.570  0.0000E+00  0.8000E+01
 -14.560  0.1385E+01  0.8014E+01
 -14.550  0.2090E+01  0.8031E+01
 -14.540  0.2909E+01  0.8056E+01
 -14.530  0.3742E+01  0.8089E+01
 -14.520  0.4591E+01  0.8131E+01
 -14.510  0.5486E+01  0.8181E+01
 -14.500  0.6426E+01  0.8241E+01
 -14.490  0.7709E+01  0.8311E+01
 -14.480  0.1100E+02  0.8404E+01
 -14.470  0.1449E+02  0.8531E+01
 -14.460  0.1548E+02  0.8682E+01
 -14.450  0.1624E+02  0.8842E+01
 -14.440  0.1609E+02  0.9004E+01
 -14.430  0.1617E+02  0.9166E+01
 -14.420  0.1682E+02  0.9329E+01
 -14.410  0.1766E+02  0.9504E+01
 -14.400  0.1328E+02  0.9661E+01
 -14.390  0.9675E+01  0.9773E+01
 -14.380  0.7076E+01  0.9856E+01
 -14.370  0.5370E+01  0.9918E+01
 -14.360  0.4044E+01  0.9965E+01
 -14.350  0.1582E+01  0.9994E+01
 -14.340  0.5696E-02  0.1000E+02
 -14.330  0.0000E+00  0.1000E+02
 -14.320  0.0000E+00  0.1000E+02
 -14.310  0.0000E+00  0.1000E+02
 -14.300  0.0000E+00  0.1000E+02
 -14.290  0.0000E+00  0.1000E+02
 -14.280  0.0000E+00  0.1000E+02
 -14.270  0.0000E+00  0.1000E+02
 -14.260  0.0000E+00  0.1000E+02
 -14.250  0.0000E+00  0.1000E+02
 -14.240  0.0000E+00  0.1000E+02
 -14.230  0.0000E+00  0.1000E+02
 -14.220  0.0000E+00  0.1000E+02
 -14.210  0.0000E+00  0.1000E+02
 -14.200  0.0000E+00  0.1000E+02
 -14.190  0.0000E+00  0.1000E+02
 -14.180  0.0000E+00  0.1000E+02
 -14.170  0.0000E+00  0.1000E+02
 -14.160  0.0000E+00  0.1000E+02
 -14.150  0.0000E+00  0.1000E+02
 -14.140  0.0000E+00  0.1000E+02
 -14.130  0.0000E+00  0.1000E+02
 -14.120  0.0000E+00  0.1000E+02
 -14.110  0.0000E+00  0.1000E+02
 -14.100  0.0000E+00  0.1000E+02
 -14.090  0.0000E+00  0.1000E+02
 -14.080  0.0000E+00  0.1000E+02
 -14.070  0.0000E+00  0.1000E+02
 -14.060  0.0000E+00  0.1000E+02
 -14.050  0.0000E+00  0.1000E+02
 -14.040  0.0000E+00  0.1000E+02
 -14.030  0.0000E+00  0.1000E+02
 -14.020  0.0000E+00  0.1000E+02
 -14.010  0.0000E+00  0.1000E+02
 -14.000  0.0000E+00  0.1000E+02
 -13.990  0.0000E+00  0.1000E+02
 -13.980  0.0000E+00  0.1000E+02
 -13.970  0.0000E+00  0.1000E+02
 -13.960  0.0000E+00  0.1000E+02
 -13.950  0.0000E+00  0.1000E+02
 -13.940  0.0000E+00  0.1000E+02
 -13.930  0.0000E+00  0.1000E+02
 -13.920  0.0000E+00  0.1000E+02
 -13.910  0.0000E+00  0.1000E+02
 -13.900  0.0000E+00  0.1000E+02
 -13.890  0.0000E+00  0.1000E+02
 -13.880  0.0000E+00  0.1000E+02
 -13.870  0.0000E+00  0.1000E+02
 -13.860  0.0000E+00  0.1000E+02
 -13.850  0.0000E+00  0.1000E+02
 -13.840  0.0000E+00  0.1000E+02
 -13.830  0.0000E+00  0.1000E+02
 -13.820  0.0000E+00  0.1000E+02
 -13.810  0.0000E+00  0.1000E+02
 -13.800  0.0000E+00  0.1000E+02
 -13.790  0.0000E+00  0.1000E+02
 -13.780  0.0000E+00  0.1000E+02
 -13.770  0.0000E+00  0.1000E+02
 -13.760  0.0000E+00  0.1000E+02
 -13.750  0.0000E+00  0.1000E+02
 -13.740  0.0000E+00  0.1000E+02
 -13.730  0.0000E+00  0.1000E+02
 -13.720  0.0000E+00  0.1000E+02
 -13.710  0.0000E+00  0.1000E+02
 -13.700  0.0000E+00  0.1000E+02
 -13.690  0.0000E+00  0.1000E+02
 -13.680  0.0000E+00  0.1000E+02
 -13.670  0.0000E+00  0.1000E+02
 -13.660  0.0000E+00  0.1000E+02
 -13.650  0.0000E+00  0.1000E+02
 -13.640  0.0000E+00  0.1000E+02
 -13.630  0.0000E+00  0.1000E+02
 -13.620  0.0000E+00  0.1000E+02
 -13.610  0.0000E+00  0.1000E+02
 -13.600  0.0000E+00  0.1000E+02
 -13.590  0.0000E+00  0.1000E+02
 -13.580  0.0000E+00  0.1000E+02
 -13.570  0.0000E+00  0.1000E+02
 -13.560  0.0000E+00  0.1000E+02
 -13.550  0.0000E+00  0.1000E+02
 -13.540  0.0000E+00  0.1000E+02
 -13.530  0.0000E+00  0.1000E+02
 -13.520  0.0000E+00  0.1000E+02
 -13.510  0.0000E+00  0.1000E+02
 -13.500  0.0000E+00  0.1000E+02
 -13.490  0.0000E+00  0.1000E+02
 -13.480  0.0000E+00  0.1000E+02
 -13.470  0.0000E+00  0.1000E+02
 -13.460  0.0000E+00  0.1000E+02
 -13.450  0.0000E+00  0.1000E+02
 -13.440  0.0000E+00  0.1000E+02
 -13.430  0.0000E+00  0.1000E+02
 -13.420  0.0000E+00  0.1000E+02
 -13.410  0.0000E+00  0.1000E+02
 -13.400  0.0000E+00  0.1000E+02
 -13.390  0.0000E+00  0.1000E+02
 -13.380  0.0000E+00  0.1000E+02
 -13.370  0.0000E+00  0.1000E+02
 -13.360  0.0000E+00  0.1000E+02
 -13.350  0.0000E+00  0.1000E+02
 -13.340  0.0000E+00  0.1000E+02
 -13.330  0.0000E+00  0.1000E+02
 -13.320  0.0000E+00  0.1000E+02
 -13.310  0.0000E+00  0.1000E+02
 -13.300  0.0000E+00  0.1000E+02
 -13.290  0.0000E+00  0.1000E+02
 -13.280  0.0000E+00  0.1000E+02
 -13.270  0.0000E+00  0.1000E+02
 -13.260  0.0000E+00  0.1000E+02
 -13.250  0.0000E+00  0.1000E+02
 -13.240  0.0000E+00  0.1000E+02
 -13.230  0.0000E+00  0.1000E+02
 -13.220  0.0000E+00  0.1000E+02
 -13.210  0.0000E+00  0.1000E+02
 -13.200  0.0000E+00  0.1000E+02
 -13.190  0.0000E+00  0.1000E+02
 -13.180  0.0000E+00  0.1000E+02
 -13.170  0.0000E+00  0.1000E+02
 -13.160  0.0000E+00  0.1000E+02
 -13.150  0.0000E+00  0.1000E+02
 -13.140  0.0000E+00  0.1000E+02
 -13.130  0.0000E+00  0.1000E+02
 -13.120  0.0000E+00  0.1000E+02
 -13.110  0.0000E+00  0.1000E+02
 -13.100  0.0000E+00  0.1000E+02
 -13.090  0.0000E+00  0.1000E+02
 -13.080  0.0000E+00  0.1000E+02
 -13.070  0.0000E+00  0.1000E+02
 -13.060  0.0000E+00  0.1000E+02
 -13.050  0.0000E+00  0.1000E+02
 -13.040  0.0000E+00  0.1000E+02
 -13.030  0.0000E+00  0.1000E+02
 -13.020  0.0000E+00  0.1000E+02
 -13.010  0.0000E+00  0.1000E+02
 -13.000  0.0000E+00  0.1000E+02
 -12.990  0.0000E+00  0.1000E+02
 -12.980  0.0000E+00  0.1000E+02
 -12.970  0.0000E+00  0.1000E+02
 -12.960  0.0000E+00  0.1000E+02
 -12.950  0.0000E+00  0.1000E+02
 -12.940  0.0000E+00  0.1000E+02
 -12.930  0.0000E+00  0.1000E+02
 -12.920  0.0000E+00  0.1000E+02
 -12.910  0.0000E+00  0.1000E+02
 -12.900  0.0000E+00  0.1000E+02
 -12.890  0.0000E+00  0.1000E+02
 -12.880  0.0000E+00  0.1000E+02
 -12.870  0.0000E+00  0.1000E+02
 -12.860  0.0000E+00  0.1000E+02
 -12.850  0.0000E+00  0.1000E+02
 -12.840  0.0000E+00  0.1000E+02
 -12.830  0.0000E+00  0.1000E+02
 -12.820  0.0000E+00  0.1000E+02
 -12.810  0.0000E+00  0.1000E+02
 -12.800  0.0000E+00  0.1000E+02
 -12.790  0.0000E+00  0.1000E+02
 -12.780  0.0000E+00  0.1000E+02
 -12.770  0.0000E+00  0.1000E+02
 -12.760  0.0000E+00  0.1000E+02
 -12.750  0.0000E+00  0.1000E+02
 -12.740  0.0000E+00  0.1000E+02
 -12.730  0.0000E+00  0.1000E+02
 -12.720  0.0000E+00  0.1000E+02
 -12.710  0.0000E+00  0.1000E+02
 -12.700  0.0000E+00  0.1000E+02
 -12.690  0.0000E+00  0.1000E+02
 -12.680  0.0000E+00  0.1000E+02
 -12.670  0.0000E+00  0.1000E+02
 -12.660  0.0000E+00  0.1000E+02
 -12.650  0.0000E+00  0.1000E+02
 -12.640  0.0000E+00  0.1000E+02
 -12.630  0.0000E+00  0.1000E+02
 -12.620  0.0000E+00  0.1000E+02
 -12.610  0.0000E+00  0.1000E+02
 -12.600  0.0000E+00  0.1000E+02
 -12.590  0.0000E+00  0.1000E+02
 -12.580  0.0000E+00  0.1000E+02
 -12.570  0.0000E+00  0.1000E+02
 -12.560  0.0000E+00  0.1000E+02
 -12.550  0.0000E+00  0.1000E+02
 -12.540  0.0000E+00  0.1000E+02
 -12.530  0.0000E+00  0.1000E+02
 -12.520  0.0000E+00  0.1000E+02
 -12.510  0.0000E+00  0.1000E+02
 -12.500  0.0000E+00  0.1000E+02
 -12.490  0.0000E+00  0.1000E+02
 -12.480  0.0000E+00  0.1000E+02
 -12.470  0.0000E+00  0.1000E+02
 -12.460  0.0000E+00  0.1000E+02
 -12.450  0.0000E+00  0.1000E+02
 -12.440  0.0000E+00  0.1000E+02
 -12.430  0.0000E+00  0.1000E+02
 -12.420  0.0000E+00  0.1000E+02
 -12.410  0.0000E+00  0.1000E+02
 -12.400  0.0000E+00  0.1000E+02
 -12.390  0.0000E+00  0.1000E+02
 -12.380  0.0000E+00  0.1000E+02
 -12.370  0.0000E+00  0.1000E+02
 -12.360  0.0000E+00  0.1000E+02
 -12.350  0.0000E+00  0.1000E+02
 -12.340  0.0000E+00  0.1000E+02
 -12.330  0.0000E+00  0.1000E+02
 -12.320  0.0000E+00  0.1000E+02
 -12.310  0.0000E+00  0.1000E+02
 -12.300  0.0000E+00  0.1000E+02
 -12.290  0.0000E+00  0.1000E+02
 -12.280  0.0000E+00  0.1000E+02
 -12.270  0.0000E+00  0.1000E+02
 -12.260  0.0000E+00  0.1000E+02
 -12.250  0.0000E+00  0.1000E+02
 -12.240  0.0000E+00  0.1000E+02
 -12.230  0.0000E+00  0.1000E+02
 -12.220  0.0000E+00  0.1000E+02
 -12.210  0.0000E+00  0.1000E+02
 -12.200  0.0000E+00  0.1000E+02
 -12.190  0.0000E+00  0.1000E+02
 -12.180  0.0000E+00  0.1000E+02
 -12.170  0.0000E+00  0.1000E+02
 -12.160  0.0000E+00  0.1000E+02
 -12.150  0.0000E+00  0.1000E+02
 -12.140  0.0000E+00  0.1000E+02
 -12.130  0.0000E+00  0.1000E+02
 -12.120  0.0000E+00  0.1000E+02
 -12.110  0.0000E+00  0.1000E+02
 -12.100  0.0000E+00  0.1000E+02
 -12.090  0.0000E+00  0.1000E+02
 -12.080  0.0000E+00  0.1000E+02
 -12.070  0.0000E+00  0.1000E+02
 -12.060  0.0000E+00  0.1000E+02
 -12.050  0.0000E+00  0.1000E+02
 -12.040  0.0000E+00  0.1000E+02
 -12.030  0.0000E+00  0.1000E+02
 -12.020  0.0000E+00  0.1000E+02
 -12.010  0.0000E+00  0.1000E+02
 -12.000  0.0000E+00  0.1000E+02
 -11.990  0.0000E+00  0.1000E+02
 -11.980  0.0000E+00  0.1000E+02
 -11.970  0.0000E+00  0.1000E+02
 -11.960  0.0000E+00  0.1000E+02
 -11.950  0.0000E+00  0.1000E+02
 -11.940  0.0000E+00  0.1000E+02
 -11.930  0.0000E+00  0.1000E+02
 -11.920  0.0000E+00  0.1000E+02
 -11.910  0.0000E+00  0.1000E+02
 -11.900  0.0000E+00  0.1000E+02
 -11.890  0.0000E+00  0.1000E+02
 -11.880  0.0000E+00  0.1000E+02
 -11.870  0.0000E+00  0.1000E+02
 -11.860  0.0000E+00  0.1000E+02
 -11.850  0.0000E+00  0.1000E+02
 -11.840  0.0000E+00  0.1000E+02
 -11.830  0.0000E+00  0.1000E+02
 -11.820  0.0000E+00  0.1000E+02
 -11.810  0.0000E+00  0.1000E+02
 -11.800  0.0000E+00  0.1000E+02
 -11.790  0.0000E+00  0.1000E+02
 -11.780  0.0000E+00  0.1000E+02
 -11.770  0.0000E+00  0.1000E+02
 -11.760  0.0000E+00  0.1000E+02
 -11.750  0.0000E+00  0.1000E+02
 -11.740  0.0000E+00  0.1000E+02
 -11.730  0.0000E+00  0.1000E+02
 -11.720  0.0000E+00  0.1000E+02
 -11.710  0.0000E+00  0.1000E+02
 -11.700  0.0000E+00  0.1000E+02
 -11.690  0.0000E+00  0.1000E+02
 -11.680  0.0000E+00  0.1000E+02
 -11.670  0.0000E+00  0.1000E+02
 -11.660  0.0000E+00  0.1000E+02
 -11.650  0.0000E+00  0.1000E+02
 -11.640  0.0000E+00  0.1000E+02
 -11.630  0.0000E+00  0.1000E+02
 -11.620  0.0000E+00  0.1000E+02
 -11.610  0.0000E+00  0.1000E+02
 -11.600  0.0000E+00  0.1000E+02
 -11.590  0.0000E+00  0.1000E+02
 -11.580  0.0000E+00  0.1000E+02
 -11.570  0.0000E+00  0.1000E+02
 -11.560  0.0000E+00  0.1000E+02
 -11.550  0.0000E+00  0.1000E+02
 -11.540  0.0000E+00  0.1000E+02
 -11.530  0.0000E+00  0.1000E+02
 -11.520  0.0000E+00  0.1000E+02
 -11.510  0.0000E+00  0.1000E+02
 -11.500  0.0000E+00  0.1000E+02
 -11.490  0.0000E+00  0.1000E+02
 -11.480  0.0000E+00  0.1000E+02
 -11.470  0.0000E+00  0.1000E+02
 -11.460  0.0000E+00  0.1000E+02
 -11.450  0.0000E+00  0.1000E+02
 -11.440  0.0000E+00  0.1000E+02
 -11.430  0.0000E+00  0.1000E+02
 -11.420  0.0000E+00  0.1000E+02
 -11.410  0.0000E+00  0.1000E+02
 -11.400  0.0000E+00  0.1000E+02
 -11.390  0.0000E+00  0.1000E+02
 -11.380  0.0000E+00  0.1000E+02
 -11.370  0.0000E+00  0.1000E+02
 -11.360  0.0000E+00  0.1000E+02
 -11.350  0.0000E+00  0.1000E+02
 -11.340  0.0000E+00  0.1000E+02
 -11.330  0.0000E+00  0.1000E+02
 -11.320  0.0000E+00  0.1000E+02
 -11.310  0.0000E+00  0.1000E+02
 -11.300  0.0000E+00  0.1000E+02
 -11.290  0.0000E+00  0.1000E+02
 -11.280  0.0000E+00  0.1000E+02
 -11.270  0.0000E+00  0.1000E+02
 -11.260  0.0000E+00  0.1000E+02
 -11.250  0.0000E+00  0.1000E+02
 -11.240  0.0000E+00  0.1000E+02
 -11.230  0.0000E+00  0.1000E+02
 -11.220  0.0000E+00  0.1000E+02
 -11.210  0.0000E+00  0.1000E+02
 -11.200  0.0000E+00  0.1000E+02
 -11.190  0.0000E+00  0.1000E+02
 -11.180  0.0000E+00  0.1000E+02
 -11.170  0.0000E+00  0.1000E+02
 -11.160  0.0000E+00  0.1000E+02
 -11.150  0.0000E+00  0.1000E+02
 -11.140  0.0000E+00  0.1000E+02
 -11.130  0.0000E+00  0.1000E+02
 -11.120  0.0000E+00  0.1000E+02
 -11.110  0.0000E+00  0.1000E+02
 -11.100  0.0000E+00  0.1000E+02
 -11.090  0.0000E+00  0.1000E+02
 -11.080  0.0000E+00  0.1000E+02
 -11.070  0.0000E+00  0.1000E+02
 -11.060  0.0000E+00  0.1000E+02
 -11.050  0.0000E+00  0.1000E+02
 -11.040  0.0000E+00  0.1000E+02
 -11.030  0.0000E+00  0.1000E+02
 -11.020  0.0000E+00  0.1000E+02
 -11.010  0.0000E+00  0.1000E+02
 -11.000  0.0000E+00  0.1000E+02
 -10.990  0.0000E+00  0.1000E+02
 -10.980  0.0000E+00  0.1000E+02
 -10.970  0.0000E+00  0.1000E+02
 -10.960  0.0000E+00  0.1000E+02
 -10.950  0.0000E+00  0.1000E+02
 -10.940  0.0000E+00  0.1000E+02
 -10.930  0.0000E+00  0.1000E+02
 -10.920  0.0000E+00  0.1000E+02
 -10.910  0.0000E+00  0.1000E+02
 -10.900  0.0000E+00  0.1000E+02
 -10.890  0.0000E+00  0.1000E+02
 -10.880  0.0000E+00  0.1000E+02
 -10.870  0.0000E+00  0.1000E+02
 -10.860  0.0000E+00  0.1000E+02
 -10.850  0.0000E+00  0.1000E+02
 -10.840  0.0000E+00  0.1000E+02
 -10.830  0.0000E+00  0.1000E+02
 -10.820  0.0000E+00  0.1000E+02
 -10.810  0.0000E+00  0.1000E+02
 -10.800  0.0000E+00  0.1000E+02
 -10.790  0.0000E+00  0.1000E+02
 -10.780  0.0000E+00  0.1000E+02
 -10.770  0.0000E+00  0.1000E+02
 -10.760  0.0000E+00  0.1000E+02
 -10.750  0.0000E+00  0.1000E+02
 -10.740  0.0000E+00  0.1000E+02
 -10.730  0.0000E+00  0.1000E+02
 -10.720  0.0000E+00  0.1000E+02
 -10.710  0.0000E+00  0.1000E+02
 -10.700  0.0000E+00  0.1000E+02
 -10.690  0.0000E+00  0.1000E+02
 -10.680  0.0000E+00  0.1000E+02
 -10.670  0.0000E+00  0.1000E+02
 -10.660  0.0000E+00  0.1000E+02
 -10.650  0.0000E+00  0.1000E+02
 -10.640  0.0000E+00  0.1000E+02
 -10.630  0.0000E+00  0.1000E+02
 -10.620  0.0000E+00  0.1000E+02
 -10.610  0.0000E+00  0.1000E+02
 -10.600  0.0000E+00  0.1000E+02
 -10.590  0.0000E+00  0.1000E+02
 -10.580  0.0000E+00  0.1000E+02
 -10.570  0.0000E+00  0.1000E+02
 -10.560  0.0000E+00  0.1000E+02
 -10.550  0.0000E+00  0.1000E+02
 -10.540  0.0000E+00  0.1000E+02
 -10.530  0.0000E+00  0.1000E+02
 -10.520  0.0000E+00  0.1000E+02
 -10.510  0.0000E+00  0.1000E+02
 -10.500  0.0000E+00  0.1000E+02
 -10.490  0.0000E+00  0.1000E+02
 -10.480  0.0000E+00  0.1000E+02
 -10.470  0.0000E+00  0.1000E+02
 -10.460  0.0000E+00  0.1000E+02
 -10.450  0.0000E+00  0.1000E+02
 -10.440  0.0000E+00  0.1000E+02
 -10.430  0.0000E+00  0.1000E+02
 -10.420  0.0000E+00  0.1000E+02
 -10.410  0.0000E+00  0.1000E+02
 -10.400  0.0000E+00  0.1000E+02
 -10.390  0.0000E+00  0.1000E+02
 -10.380  0.0000E+00  0.1000E+02
 -10.370  0.0000E+00  0.1000E+02
 -10.360  0.0000E+00  0.1000E+02
 -10.350  0.0000E+00  0.1000E+02
 -10.340  0.0000E+00  0.1000E+02
 -10.330  0.0000E+00  0.1000E+02
 -10.320  0.0000E+00  0.1000E+02
 -10.310  0.0000E+00  0.1000E+02
 -10.300  0.0000E+00  0.1000E+02
 -10.290  0.0000E+00  0.1000E+02
 -10.280  0.0000E+00  0.1000E+02
 -10.270  0.0000E+00  0.1000E+02
 -10.260  0.0000E+00  0.1000E+02
 -10.250  0.0000E+00  0.1000E+02
 -10.240  0.0000E+00  0.1000E+02
 -10.230  0.0000E+00  0.1000E+02
 -10.220  0.0000E+00  0.1000E+02
 -10.210  0.0000E+00  0.1000E+02
 -10.200  0.0000E+00  0.1000E+02
 -10.190  0.0000E+00  0.1000E+02
 -10.180  0.0000E+00  0.1000E+02
 -10.170  0.0000E+00  0.1000E+02
 -10.160  0.0000E+00  0.1000E+02
 -10.150  0.0000E+00  0.1000E+02
 -10.140  0.0000E+00  0.1000E+02
 -10.130  0.0000E+00  0.1000E+02
 -10.120  0.0000E+00  0.1000E+02
 -10.110  0.0000E+00  0.1000E+02
 -10.100  0.0000E+00  0.1000E+02
 -10.090  0.0000E+00  0.1000E+02
 -10.080  0.0000E+00  0.1000E+02
 -10.070  0.0000E+00  0.1000E+02
 -10.060  0.0000E+00  0.1000E+02
 -10.050  0.0000E+00  0.1000E+02
 -10.040  0.0000E+00  0.1000E+02
 -10.030  0.0000E+00  0.1000E+02
 -10.020  0.0000E+00  0.1000E+02
 -10.010  0.0000E+00  0.1000E+02
 -10.000  0.0000E+00  0.1000E+02
  -9.990  0.0000E+00  0.1000E+02
  -9.980  0.0000E+00  0.1000E+02
  -9.970  0.0000E+00  0.1000E+02
  -9.960  0.0000E+00  0.1000E+02
  -9.950  0.0000E+00  0.1000E+02
  -9.940  0.0000E+00  0.1000E+02
  -9.930  0.0000E+00  0.1000E+02
  -9.920  0.0000E+00  0.1000E+02
  -9.910  0.0000E+00  0.1000E+02
  -9.900  0.0000E+00  0.1000E+02
  -9.890  0.0000E+00  0.1000E+02
  -9.880  0.0000E+00  0.1000E+02
  -9.870  0.0000E+00  0.1000E+02
  -9.860  0.0000E+00  0.1000E+02
  -9.850  0.0000E+00  0.1000E+02
  -9.840  0.0000E+00  0.1000E+02
  -9.830  0.0000E+00  0.1000E+02
  -9.820  0.0000E+00  0.1000E+02
  -9.810  0.0000E+00  0.1000E+02
  -9.800  0.0000E+00  0.1000E+02
  -9.790  0.0000E+00  0.1000E+02
  -9.780  0.0000E+00  0.1000E+02
  -9.770  0.0000E+00  0.1000E+02
  -9.760  0.0000E+00  0.1000E+02
  -9.750  0.0000E+00  0.1000E+02
  -9.740  0.0000E+00  0.1000E+02
  -9.730  0.0000E+00  0.1000E+02
  -9.720  0.0000E+00  0.1000E+02
  -9.710  0.0000E+00  0.1000E+02
  -9.700  0.0000E+00  0.1000E+02
  -9.690  0.0000E+00  0.1000E+02
  -9.680  0.0000E+00  0.1000E+02
  -9.670  0.0000E+00  0.1000E+02
  -9.660  0.0000E+00  0.1000E+02
  -9.650  0.0000E+00  0.1000E+02
  -9.640  0.0000E+00  0.1000E+02
  -9.630  0.0000E+00  0.1000E+02
  -9.620  0.0000E+00  0.1000E+02
  -9.610  0.0000E+00  0.1000E+02
  -9.600  0.0000E+00  0.1000E+02
  -9.590  0.0000E+00  0.1000E+02
  -9.580  0.0000E+00  0.1000E+02
  -9.570  0.0000E+00  0.1000E+02
  -9.560  0.0000E+00  0.1000E+02
  -9.550  0.0000E+00  0.1000E+02
  -9.540  0.0000E+00  0.1000E+02
  -9.530  0.0000E+00  0.1000E+02
  -9.520  0.0000E+00  0.1000E+02
  -9.510  0.0000E+00  0.1000E+02
  -9.500  0.0000E+00  0.1000E+02
  -9.490  0.0000E+00  0.1000E+02
  -9.480  0.0000E+00  0.1000E+02
  -9.470  0.0000E+00  0.1000E+02
  -9.460  0.0000E+00  0.1000E+02
  -9.450  0.0000E+00  0.1000E+02
  -9.440  0.0000E+00  0.1000E+02
  -9.430  0.0000E+00  0.1000E+02
  -9.420  0.0000E+00  0.1000E+02
  -9.410  0.0000E+00  0.1000E+02
  -9.400  0.0000E+00  0.1000E+02
  -9.390  0.0000E+00  0.1000E+02
  -9.380  0.0000E+00  0.1000E+02
  -9.370  0.0000E+00  0.1000E+02
  -9.360  0.0000E+00  0.1000E+02
  -9.350  0.0000E+00  0.1000E+02
  -9.340  0.0000E+00  0.1000E+02
  -9.330  0.0000E+00  0.1000E+02
  -9.320  0.0000E+00  0.1000E+02
  -9.310  0.0000E+00  0.1000E+02
  -9.300  0.0000E+00  0.1000E+02
  -9.290  0.0000E+00  0.1000E+02
  -9.280  0.0000E+00  0.1000E+02
  -9.270  0.0000E+00  0.1000E+02
  -9.260  0.0000E+00  0.1000E+02
  -9.250  0.0000E+00  0.1000E+02
  -9.240  0.0000E+00  0.1000E+02
  -9.230  0.0000E+00  0.1000E+02
  -9.220  0.0000E+00  0.1000E+02
  -9.210  0.0000E+00  0.1000E+02
  -9.200  0.0000E+00  0.1000E+02
  -9.190  0.0000E+00  0.1000E+02
  -9.180  0.0000E+00  0.1000E+02
  -9.170  0.0000E+00  0.1000E+02
  -9.160  0.0000E+00  0.1000E+02
  -9.150  0.0000E+00  0.1000E+02
  -9.140  0.0000E+00  0.1000E+02
  -9.130  0.0000E+00  0.1000E+02
  -9.120  0.0000E+00  0.1000E+02
  -9.110  0.0000E+00  0.1000E+02
  -9.100  0.0000E+00  0.1000E+02
  -9.090  0.0000E+00  0.1000E+02
  -9.080  0.0000E+00  0.1000E+02
  -9.070  0.0000E+00  0.1000E+02
  -9.060  0.0000E+00  0.1000E+02
  -9.050  0.0000E+00  0.1000E+02
  -9.040  0.0000E+00  0.1000E+02
  -9.030  0.0000E+00  0.1000E+02
  -9.020  0.0000E+00  0.1000E+02
  -9.010  0.0000E+00  0.1000E+02
  -9.000  0.0000E+00  0.1000E+02
  -8.990  0.0000E+00  0.1000E+02
  -8.980  0.0000E+00  0.1000E+02
  -8.970  0.0000E+00  0.1000E+02
  -8.960  0.0000E+00  0.1000E+02
  -8.950  0.0000E+00  0.1000E+02
  -8.940  0.0000E+00  0.1000E+02
  -8.930  0.0000E+00  0.1000E+02
  -8.920  0.0000E+00  0.1000E+02
  -8.910  0.0000E+00  0.1000E+02
  -8.900  0.0000E+00  0.1000E+02
  -8.890  0.0000E+00  0.1000E+02
  -8.880  0.0000E+00  0.1000E+02
  -8.870  0.0000E+00  0.1000E+02
  -8.860  0.0000E+00  0.1000E+02
  -8.850  0.0000E+00  0.1000E+02
  -8.840  0.0000E+00  0.1000E+02
  -8.830  0.0000E+00  0.1000E+02
  -8.820  0.0000E+00  0.1000E+02
  -8.810  0.0000E+00  0.1000E+02
  -8.800  0.0000E+00  0.1000E+02
  -8.790  0.0000E+00  0.1000E+02
  -8.780  0.0000E+00  0.1000E+02
  -8.770  0.0000E+00  0.1000E+02
  -8.760  0.0000E+00  0.1000E+02
  -8.750  0.0000E+00  0.1000E+02
  -8.740  0.0000E+00  0.1000E+02
  -8.730  0.0000E+00  0.1000E+02
  -8.720  0.0000E+00  0.1000E+02
  -8.710  0.0000E+00  0.1000E+02
  -8.700  0.0000E+00  0.1000E+02
  -8.690  0.0000E+00  0.1000E+02
  -8.680  0.0000E+00  0.1000E+02
  -8.670  0.0000E+00  0.1000E+02
  -8.660  0.0000E+00  0.1000E+02
  -8.650  0.0000E+00  0.1000E+02
  -8.640  0.0000E+00  0.1000E+02
  -8.630  0.0000E+00  0.1000E+02
  -8.620  0.0000E+00  0.1000E+02
  -8.610  0.0000E+00  0.1000E+02
  -8.600  0.0000E+00  0.1000E+02
  -8.590  0.0000E+00  0.1000E+02
  -8.580  0.0000E+00  0.1000E+02
  -8.570  0.0000E+00  0.1000E+02
  -8.560  0.0000E+00  0.1000E+02
  -8.550  0.0000E+00  0.1000E+02
  -8.540  0.0000E+00  0.1000E+02
  -8.530  0.0000E+00  0.1000E+02
  -8.520  0.0000E+00  0.1000E+02
  -8.510  0.0000E+00  0.1000E+02
  -8.500  0.0000E+00  0.1000E+02
  -8.490  0.0000E+00  0.1000E+02
  -8.480  0.0000E+00  0.1000E+02
  -8.470  0.0000E+00  0.1000E+02
  -8.460  0.0000E+00  0.1000E+02
  -8.450  0.0000E+00  0.1000E+02
  -8.440  0.0000E+00  0.1000E+02
  -8.430  0.0000E+00  0.1000E+02
  -8.420  0.0000E+00  0.1000E+02
  -8.410  0.0000E+00  0.1000E+02
  -8.400  0.0000E+00  0.1000E+02
  -8.390  0.0000E+00  0.1000E+02
  -8.380  0.0000E+00  0.1000E+02
  -8.370  0.0000E+00  0.1000E+02
  -8.360  0.0000E+00  0.1000E+02
  -8.350  0.0000E+00  0.1000E+02
  -8.340  0.0000E+00  0.1000E+02
  -8.330  0.0000E+00  0.1000E+02
  -8.320  0.0000E+00  0.1000E+02
  -8.310  0.0000E+00  0.1000E+02
  -8.300  0.0000E+00  0.1000E+02
  -8.290  0.0000E+00  0.1000E+02
  -8.280  0.0000E+00  0.1000E+02
  -8.270  0.0000E+00  0.1000E+02
  -8.260  0.0000E+00  0.1000E+02
  -8.250  0.0000E+00  0.1000E+02
  -8.240  0.0000E+00  0.1000E+02
  -8.230  0.0000E+00  0.1000E+02
  -8.220  0.0000E+00  0.1000E+02
  -8.210  0.0000E+00  0.1000E+02
  -8.200  0.0000E+00  0.1000E+02
  -8.190  0.0000E+00  0.1000E+02
  -8.180  0.0000E+00  0.1000E+02
  -8.170  0.0000E+00  0.1000E+02
  -8.160  0.0000E+00  0.1000E+02
  -8.150  0.0000E+00  0.1000E+02
  -8.140  0.0000E+00  0.1000E+02
  -8.130  0.0000E+00  0.1000E+02
  -8.120  0.0000E+00  0.1000E+02
  -8.110  0.0000E+00  0.1000E+02
  -8.100  0.0000E+00  0.1000E+02
  -8.090  0.0000E+00  0.1000E+02
  -8.080  0.0000E+00  0.1000E+02
  -8.070  0.0000E+00  0.1000E+02
  -8.060  0.0000E+00  0.1000E+02
  -8.050  0.0000E+00  0.1000E+02
  -8.040  0.0000E+00  0.1000E+02
  -8.030  0.0000E+00  0.1000E+02
  -8.020  0.0000E+00  0.1000E+02
  -8.010  0.0000E+00  0.1000E+02
  -8.000  0.0000E+00  0.1000E+02
  -7.990  0.0000E+00  0.1000E+02
  -7.980  0.0000E+00  0.1000E+02
  -7.970  0.0000E+00  0.1000E+02
  -7.960  0.0000E+00  0.1000E+02
  -7.950  0.0000E+00  0.1000E+02
  -7.940  0.0000E+00  0.1000E+02
  -7.930  0.0000E+00  0.1000E+02
  -7.920  0.0000E+00  0.1000E+02
  -7.910  0.0000E+00  0.1000E+02
  -7.900  0.0000E+00  0.1000E+02
  -7.890  0.0000E+00  0.1000E+02
  -7.880  0.0000E+00  0.1000E+02
  -7.870  0.0000E+00  0.1000E+02
  -7.860  0.0000E+00  0.1000E+02
  -7.850  0.0000E+00  0.1000E+02
  -7.840  0.0000E+00  0.1000E+02
  -7.830  0.0000E+00  0.1000E+02
  -7.820  0.0000E+00  0.1000E+02
  -7.810  0.0000E+00  0.1000E+02
  -7.800  0.0000E+00  0.1000E+02
  -7.790  0.0000E+00  0.1000E+02
  -7.780  0.0000E+00  0.1000E+02
  -7.770  0.0000E+00  0.1000E+02
  -7.760  0.0000E+00  0.1000E+02
  -7.750  0.0000E+00  0.1000E+02
  -7.740  0.0000E+00  0.1000E+02
  -7.730  0.0000E+00  0.1000E+02
  -7.720  0.0000E+00  0.1000E+02
  -7.710  0.0000E+00  0.1000E+02
  -7.700  0.0000E+00  0.1000E+02
  -7.690  0.0000E+00  0.1000E+02
  -7.680  0.0000E+00  0.1000E+02
  -7.670  0.0000E+00  0.1000E+02
  -7.660  0.0000E+00  0.1000E+02
  -7.650  0.0000E+00  0.1000E+02
  -7.640  0.0000E+00  0.1000E+02
  -7.630  0.0000E+00  0.1000E+02
  -7.620  0.0000E+00  0.1000E+02
  -7.610  0.0000E+00  0.1000E+02
  -7.600  0.0000E+00  0.1000E+02
  -7.590  0.0000E+00  0.1000E+02
  -7.580  0.0000E+00  0.1000E+02
  -7.570  0.0000E+00  0.1000E+02
  -7.560  0.0000E+00  0.1000E+02
  -7.550  0.0000E+00  0.1000E+02
  -7.540  0.0000E+00  0.1000E+02
  -7.530  0.0000E+00  0.1000E+02
  -7.520  0.0000E+00  0.1000E+02
  -7.510  0.0000E+00  0.1000E+02
  -7.500  0.0000E+00  0.1000E+02
  -7.490  0.0000E+00  0.1000E+02
  -7.480  0.0000E+00  0.1000E+02
  -7.470  0.0000E+00  0.1000E+02
  -7.460  0.0000E+00  0.1000E+02
  -7.450  0.0000E+00  0.1000E+02
  -7.440  0.0000E+00  0.1000E+02
  -7.430  0.0000E+00  0.1000E+02
  -7.420  0.0000E+00  0.1000E+02
  -7.410  0.0000E+00  0.1000E+02
  -7.400  0.0000E+00  0.1000E+02
  -7.390  0.0000E+00  0.1000E+02
  -7.380  0.0000E+00  0.1000E+02
  -7.370  0.0000E+00  0.1000E+02
  -7.360  0.0000E+00  0.1000E+02
  -7.350  0.0000E+00  0.1000E+02
  -7.340  0.0000E+00  0.1000E+02
  -7.330  0.0000E+00  0.1000E+02
  -7.320  0.0000E+00  0.1000E+02
  -7.310  0.0000E+00  0.1000E+02
  -7.300  0.0000E+00  0.1000E+02
  -7.290  0.0000E+00  0.1000E+02
  -7.280  0.0000E+00  0.1000E+02
  -7.270  0.0000E+00  0.1000E+02
  -7.260  0.0000E+00  0.1000E+02
  -7.250  0.0000E+00  0.1000E+02
  -7.240  0.0000E+00  0.1000E+02
  -7.230  0.0000E+00  0.1000E+02
  -7.220  0.0000E+00  0.1000E+02
  -7.210  0.0000E+00  0.1000E+02
  -7.200  0.0000E+00  0.1000E+02
  -7.190  0.0000E+00  0.1000E+02
  -7.180  0.0000E+00  0.1000E+02
  -7.170  0.0000E+00  0.1000E+02
  -7.160  0.0000E+00  0.1000E+02
  -7.150  0.0000E+00  0.1000E+02
  -7.140  0.0000E+00  0.1000E+02
  -7.130  0.0000E+00  0.1000E+02
  -7.120  0.0000E+00  0.1000E+02
  -7.110  0.0000E+00  0.1000E+02
  -7.100  0.0000E+00  0.1000E+02
  -7.090  0.0000E+00  0.1000E+02
  -7.080  0.0000E+00  0.1000E+02
  -7.070  0.0000E+00  0.1000E+02
  -7.060  0.0000E+00  0.1000E+02
  -7.050  0.0000E+00  0.1000E+02
  -7.040  0.0000E+00  0.1000E+02
  -7.030  0.0000E+00  0.1000E+02
  -7.020  0.0000E+00  0.1000E+02
  -7.010  0.0000E+00  0.1000E+02
  -7.000  0.0000E+00  0.1000E+02
  -6.990  0.0000E+00  0.1000E+02
  -6.980  0.0000E+00  0.1000E+02
  -6.970  0.0000E+00  0.1000E+02
  -6.960  0.0000E+00  0.1000E+02
  -6.950  0.0000E+00  0.1000E+02
  -6.940  0.0000E+00  0.1000E+02
  -6.930  0.0000E+00  0.1000E+02
  -6.920  0.0000E+00  0.1000E+02
  -6.910  0.0000E+00  0.1000E+02
  -6.900  0.0000E+00  0.1000E+02
  -6.890  0.0000E+00  0.1000E+02
  -6.880  0.0000E+00  0.1000E+02
  -6.870  0.0000E+00  0.1000E+02
  -6.860  0.0000E+00  0.1000E+02
  -6.850  0.0000E+00  0.1000E+02
  -6.840  0.0000E+00  0.1000E+02
  -6.830  0.0000E+00  0.1000E+02
  -6.820  0.0000E+00  0.1000E+02
  -6.810  0.0000E+00  0.1000E+02
  -6.800  0.7641E+00  0.1000E+02
  -6.790  0.9492E+00  0.1001E+02
  -6.780  0.1145E+01  0.1002E+02
  -6.770  0.1353E+01  0.1003E+02
  -6.760  0.1571E+01  0.1005E+02
  -6.750  0.1522E+01  0.1007E+02
  -6.740  0.1747E+01  0.1008E+02
  -6.730  0.1986E+01  0.1010E+02
  -6.720  0.2239E+01  0.1012E+02
  -6.710  0.2507E+01  0.1015E+02
  -6.700  0.2789E+01  0.1017E+02
  -6.690  0.3084E+01  0.1020E+02
  -6.680  0.3394E+01  0.1023E+02
  -6.670  0.3718E+01  0.1027E+02
  -6.660  0.8435E+01  0.1034E+02
  -6.650  0.6440E+01  0.1043E+02
  -6.640  0.6247E+01  0.1050E+02
  -6.630  0.5974E+01  0.1056E+02
  -6.620  0.5630E+01  0.1061E+02
  -6.610  0.4172E+01  0.1068E+02
  -6.600  0.4079E+01  0.1072E+02
  -6.590  0.3986E+01  0.1076E+02
  -6.580  0.3893E+01  0.1080E+02
  -6.570  0.3802E+01  0.1084E+02
  -6.560  0.3710E+01  0.1088E+02
  -6.550  0.3620E+01  0.1092E+02
  -6.540  0.3530E+01  0.1095E+02
  -6.530  0.3441E+01  0.1099E+02
  -6.520  0.3352E+01  0.1102E+02
  -6.510  0.3265E+01  0.1105E+02
  -6.500  0.3180E+01  0.1109E+02
  -6.490  0.3096E+01  0.1112E+02
  -6.480  0.3014E+01  0.1115E+02
  -6.470  0.2934E+01  0.1118E+02
  -6.460  0.2849E+01  0.1121E+02
  -6.450  0.2805E+01  0.1123E+02
  -6.440  0.2840E+01  0.1126E+02
  -6.430  0.2884E+01  0.1129E+02
  -6.420  0.2937E+01  0.1132E+02
  -6.410  0.3000E+01  0.1135E+02
  -6.400  0.3071E+01  0.1138E+02
  -6.390  0.2718E+01  0.1141E+02
  -6.380  0.2652E+01  0.1144E+02
  -6.370  0.2582E+01  0.1146E+02
  -6.360  0.2508E+01  0.1149E+02
  -6.350  0.2431E+01  0.1151E+02
  -6.340  0.2350E+01  0.1154E+02
  -6.330  0.2266E+01  0.1156E+02
  -6.320  0.2177E+01  0.1158E+02
  -6.310  0.2086E+01  0.1160E+02
  -6.300  0.1990E+01  0.1162E+02
  -6.290  0.1890E+01  0.1164E+02
  -6.280  0.1780E+01  0.1166E+02
  -6.270  0.1667E+01  0.1168E+02
  -6.260  0.1573E+01  0.1169E+02
  -6.250  0.1506E+01  0.1171E+02
  -6.240  0.1440E+01  0.1172E+02
  -6.230  0.1377E+01  0.1174E+02
  -6.220  0.1319E+01  0.1175E+02
  -6.210  0.1266E+01  0.1176E+02
  -6.200  0.1214E+01  0.1178E+02
  -6.190  0.1164E+01  0.1179E+02
  -6.180  0.1116E+01  0.1180E+02
  -6.170  0.1070E+01  0.1181E+02
  -6.160  0.1025E+01  0.1182E+02
  -6.150  0.9823E+00  0.1183E+02
  -6.140  0.9411E+00  0.1184E+02
  -6.130  0.9016E+00  0.1185E+02
  -6.120  0.8639E+00  0.1186E+02
  -6.110  0.8279E+00  0.1187E+02
  -6.100  0.7936E+00  0.1188E+02
  -6.090  0.7612E+00  0.1188E+02
  -6.080  0.7324E+00  0.1189E+02
  -6.070  0.7052E+00  0.1190E+02
  -6.060  0.6793E+00  0.1191E+02
  -6.050  0.6546E+00  0.1191E+02
  -6.040  0.6312E+00  0.1192E+02
  -6.030  0.6091E+00  0.1192E+02
  -6.020  0.5881E+00  0.1193E+02
  -6.010  0.5685E+00  0.1194E+02
  -6.000  0.5501E+00  0.1194E+02
  -5.990  0.5286E+00  0.1195E+02
  -5.980  0.5032E+00  0.1195E+02
  -5.970  0.4776E+00  0.1196E+02
  -5.960  0.1025E+02  0.1204E+02
  -5.950  0.1516E+02  0.1219E+02
  -5.940  0.1832E+02  0.1236E+02
  -5.930  0.2580E+02  0.1260E+02
  -5.920  0.3275E+02  0.1292E+02
  -5.910  0.3033E+02  0.1323E+02
  -5.900  0.2669E+02  0.1352E+02
  -5.890  0.2199E+02  0.1375E+02
  -5.880  0.2148E+02  0.1398E+02
  -5.870  0.2404E+02  0.1420E+02
  -5.860  0.3003E+02  0.1447E+02
  -5.850  0.3399E+02  0.1480E+02
  -5.840  0.2500E+02  0.1509E+02
  -5.830  0.2064E+02  0.1532E+02
  -5.820  0.1629E+02  0.1551E+02
  -5.810  0.1300E+02  0.1565E+02
  -5.800  0.1022E+02  0.1577E+02
  -5.790  0.5843E+01  0.1586E+02
  -5.780  0.3975E+01  0.1590E+02
  -5.770  0.2662E+01  0.1594E+02
  -5.760  0.1902E+01  0.1596E+02
  -5.750  0.1423E+01  0.1598E+02
  -5.740  0.1004E+01  0.1599E+02
  -5.730  0.6424E+00  0.1600E+02
  -5.720  0.0000E+00  0.1600E+02
  -5.710  0.0000E+00  0.1600E+02
  -5.700  0.0000E+00  0.1600E+02
  -5.690  0.0000E+00  0.1600E+02
  -5.680  0.0000E+00  0.1600E+02
  -5.670  0.0000E+00  0.1600E+02
  -5.660  0.0000E+00  0.1600E+02
  -5.650  0.0000E+00  0.1600E+02
  -5.640  0.0000E+00  0.1600E+02
  -5.630  0.0000E+00  0.1600E+02
  -5.620  0.0000E+00  0.1600E+02
  -5.610  0.0000E+00  0.1600E+02
  -5.600  0.0000E+00  0.1600E+02
  -5.590  0.0000E+00  0.1600E+02
  -5.580  0.0000E+00  0.1600E+02
  -5.570  0.0000E+00  0.1600E+02
  -5.560  0.0000E+00  0.1600E+02
  -5.550  0.0000E+00  0.1600E+02
  -5.540  0.0000E+00  0.1600E+02
  -5.530  0.0000E+00  0.1600E+02
  -5.520  0.0000E+00  0.1600E+02
  -5.510  0.0000E+00  0.1600E+02
  -5.500  0.0000E+00  0.1600E+02
  -5.490  0.0000E+00  0.1600E+02
  -5.480  0.0000E+00  0.1600E+02
  -5.470  0.0000E+00  0.1600E+02
  -5.460  0.0000E+00  0.1600E+02
  -5.450  0.0000E+00  0.1600E+02
  -5.440  0.0000E+00  0.1600E+02
  -5.430  0.0000E+00  0.1600E+02
  -5.420  0.0000E+00  0.1600E+02
  -5.410  0.0000E+00  0.1600E+02
  -5.400  0.0000E+00  0.1600E+02
  -5.390  0.0000E+00  0.1600E+02
  -5.380  0.0000E+00  0.1600E+02
  -5.370  0.0000E+00  0.1600E+02
  -5.360  0.0000E+00  0.1600E+02
  -5.350  0.0000E+00  0.1600E+02
  -5.340  0.0000E+00  0.1600E+02
  -5.330  0.0000E+00  0.1600E+02
  -5.320  0.0000E+00  0.1600E+02
  -5.310  0.0000E+00  0.1600E+02
  -5.300  0.0000E+00  0.1600E+02
  -5.290  0.0000E+00  0.1600E+02
  -5.280  0.0000E+00  0.1600E+02
  -5.270  0.0000E+00  0.1600E+02
  -5.260  0.0000E+00  0.1600E+02
  -5.250  0.0000E+00  0.1600E+02
  -5.240  0.0000E+00  0.1600E+02
  -5.230  0.0000E+00  0.1600E+02
  -5.220  0.0000E+00  0.1600E+02
  -5.210  0.0000E+00  0.1600E+02
  -5.200  0.0000E+00  0.1600E+02
  -5.190  0.0000E+00  0.1600E+02
  -5.180  0.0000E+00  0.1600E+02
  -5.170  0.0000E+00  0.1600E+02
  -5.160  0.0000E+00  0.1600E+02
  -5.150  0.0000E+00  0.1600E+02
  -5.140  0.0000E+00  0.1600E+02
  -5.130  0.0000E+00  0.1600E+02
  -5.120  0.0000E+00  0.1600E+02
  -5.110  0.0000E+00  0.1600E+02
  -5.100  0.0000E+00  0.1600E+02
  -5.090  0.0000E+00  0.1600E+02
  -5.080  0.0000E+00  0.1600E+02
  -5.070  0.0000E+00  0.1600E+02
  -5.060  0.0000E+00  0.1600E+02
  -5.050  0.0000E+00  0.1600E+02
  -5.040  0.0000E+00  0.1600E+02
  -5.030  0.0000E+00  0.1600E+02
  -5.020  0.0000E+00  0.1600E+02
  -5.010  0.0000E+00  0.1600E+02
  -5.000  0.0000E+00  0.1600E+02
  -4.990  0.0000E+00  0.1600E+02
  -4.980  0.0000E+00  0.1600E+02
  -4.970  0.0000E+00  0.1600E+02
  -4.960  0.0000E+00  0.1600E+02
  -4.950  0.0000E+00  0.1600E+02
  -4.940  0.0000E+00  0.1600E+02
  -4.930  0.0000E+00  0.1600E+02
  -4.920  0.0000E+00  0.1600E+02
  -4.910  0.0000E+00  0.1600E+02
  -4.900  0.0000E+00  0.1600E+02
  -4.890  0.0000E+00  0.1600E+02
  -4.880  0.0000E+00  0.1600E+02
  -4.870  0.0000E+00  0.1600E+02
  -4.860  0.0000E+00  0.1600E+02
  -4.850  0.0000E+00  0.1600E+02
  -4.840  0.0000E+00  0.1600E+02
  -4.830  0.0000E+00  0.1600E+02
  -4.820  0.0000E+00  0.1600E+02
  -4.810  0.0000E+00  0.1600E+02
  -4.800  0.0000E+00  0.1600E+02
  -4.790  0.0000E+00  0.1600E+02
  -4.780  0.0000E+00  0.1600E+02
  -4.770  0.0000E+00  0.1600E+02
  -4.760  0.0000E+00  0.1600E+02
  -4.750  0.0000E+00  0.1600E+02
  -4.740  0.0000E+00  0.1600E+02
  -4.730  0.0000E+00  0.1600E+02
  -4.720  0.0000E+00  0.1600E+02
  -4.710  0.0000E+00  0.1600E+02
  -4.700  0.0000E+00  0.1600E+02
  -4.690  0.0000E+00  0.1600E+02
  -4.680  0.0000E+00  0.1600E+02
  -4.670  0.0000E+00  0.1600E+02
  -4.660  0.0000E+00  0.1600E+02
  -4.650  0.0000E+00  0.1600E+02
  -4.640  0.0000E+00  0.1600E+02
  -4.630  0.0000E+00  0.1600E+02
  -4.620  0.0000E+00  0.1600E+02
  -4.610  0.0000E+00  0.1600E+02
  -4.600  0.0000E+00  0.1600E+02
  -4.590  0.0000E+00  0.1600E+02
  -4.580  0.0000E+00  0.1600E+02
  -4.570  0.0000E+00  0.1600E+02
  -4.560  0.0000E+00  0.1600E+02
  -4.550  0.0000E+00  0.1600E+02
  -4.540  0.0000E+00  0.1600E+02
  -4.530  0.0000E+00  0.1600E+02
  -4.520  0.0000E+00  0.1600E+02
  -4.510  0.0000E+00  0.1600E+02
  -4.500  0.0000E+00  0.1600E+02
  -4.490  0.0000E+00  0.1600E+02
  -4.480  0.0000E+00  0.1600E+02
  -4.470  0.0000E+00  0.1600E+02
  -4.460  0.0000E+00  0.1600E+02
  -4.450  0.0000E+00  0.1600E+02
  -4.440  0.0000E+00  0.1600E+02
  -4.430  0.0000E+00  0.1600E+02
  -4.420  0.0000E+00  0.1600E+02
  -4.410  0.0000E+00  0.1600E+02
  -4.400  0.0000E+00  0.1600E+02
  -4.390  0.0000E+00  0.1600E+02
  -4.380  0.0000E+00  0.1600E+02
  -4.370  0.0000E+00  0.1600E+02
  -4.360  0.0000E+00  0.1600E+02
  -4.350  0.0000E+00  0.1600E+02
  -4.340  0.0000E+00  0.1600E+02
  -4.330  0.0000E+00  0.1600E+02
  -4.320  0.0000E+00  0.1600E+02
  -4.310  0.0000E+00  0.1600E+02
  -4.300  0.0000E+00  0.1600E+02
  -4.290  0.0000E+00  0.1600E+02
  -4.280  0.0000E+00  0.1600E+02
  -4.270  0.0000E+00  0.1600E+02
  -4.260  0.0000E+00  0.1600E+02
  -4.250  0.0000E+00  0.1600E+02
  -4.240  0.0000E+00  0.1600E+02
  -4.230  0.0000E+00  0.1600E+02
  -4.220  0.0000E+00  0.1600E+02
  -4.210  0.0000E+00  0.1600E+02
  -4.200  0.0000E+00  0.1600E+02
  -4.190  0.0000E+00  0.1600E+02
  -4.180  0.0000E+00  0.1600E+02
  -4.170  0.0000E+00  0.1600E+02
  -4.160  0.0000E+00  0.1600E+02
  -4.150  0.0000E+00  0.1600E+02
  -4.140  0.0000E+00  0.1600E+02
  -4.130  0.0000E+00  0.1600E+02
  -4.120  0.0000E+00  0.1600E+02
  -4.110  0.0000E+00  0.1600E+02
  -4.100  0.0000E+00  0.1600E+02
  -4.090  0.0000E+00  0.1600E+02
  -4.080  0.0000E+00  0.1600E+02
  -4.070  0.0000E+00  0.1600E+02
  -4.060  0.0000E+00  0.1600E+02
  -4.050  0.0000E+00  0.1600E+02
  -4.040  0.0000E+00  0.1600E+02
  -4.030  0.0000E+00  0.1600E+02
  -4.020  0.0000E+00  0.1600E+02
  -4.010  0.0000E+00  0.1600E+02
  -4.000  0.0000E+00  0.1600E+02
  -3.990  0.0000E+00  0.1600E+02
  -3.980  0.0000E+00  0.1600E+02
  -3.970  0.0000E+00  0.1600E+02
  -3.960  0.0000E+00  0.1600E+02
  -3.950  0.0000E+00  0.1600E+02
  -3.940  0.0000E+00  0.1600E+02
  -3.930  0.0000E+00  0.1600E+02
  -3.920  0.0000E+00  0.1600E+02
  -3.910  0.0000E+00  0.1600E+02
  -3.900  0.0000E+00  0.1600E+02
  -3.890  0.0000E+00  0.1600E+02
  -3.880  0.0000E+00  0.1600E+02
  -3.870  0.0000E+00  0.1600E+02
  -3.860  0.0000E+00  0.1600E+02
  -3.850  0.0000E+00  0.1600E+02
  -3.840  0.0000E+00  0.1600E+02
  -3.830  0.0000E+00  0.1600E+02
  -3.820  0.0000E+00  0.1600E+02
  -3.810  0.0000E+00  0.1600E+02
  -3.800  0.0000E+00  0.1600E+02
  -3.790  0.0000E+00  0.1600E+02
  -3.780  0.0000E+00  0.1600E+02
  -3.770  0.0000E+00  0.1600E+02
  -3.760  0.0000E+00  0.1600E+02
  -3.750  0.0000E+00  0.1600E+02
  -3.740  0.0000E+00  0.1600E+02
  -3.730  0.0000E+00  0.1600E+02
  -3.720  0.0000E+00  0.1600E+02
  -3.710  0.0000E+00  0.1600E+02
  -3.700  0.0000E+00  0.1600E+02
  -3.690  0.0000E+00  0.1600E+02
  -3.680  0.0000E+00  0.1600E+02
  -3.670  0.0000E+00  0.1600E+02
  -3.660  0.0000E+00  0.1600E+02
  -3.650  0.0000E+00  0.1600E+02
  -3.640  0.0000E+00  0.1600E+02
  -3.630  0.0000E+00  0.1600E+02
  -3.620  0.0000E+00  0.1600E+02
  -3.610  0.0000E+00  0.1600E+02
  -3.600  0.0000E+00  0.1600E+02
  -3.590  0.0000E+00  0.1600E+02
  -3.580  0.0000E+00  0.1600E+02
  -3.570  0.0000E+00  0.1600E+02
  -3.560  0.0000E+00  0.1600E+02
  -3.550  0.0000E+00  0.1600E+02
  -3.540  0.0000E+00  0.1600E+02
  -3.530  0.0000E+00  0.1600E+02
  -3.520  0.0000E+00  0.1600E+02
  -3.510  0.0000E+00  0.1600E+02
  -3.500  0.0000E+00  0.1600E+02
  -3.490  0.0000E+00  0.1600E+02
  -3.480  0.0000E+00  0.1600E+02
  -3.470  0.0000E+00  0.1600E+02
  -3.460  0.0000E+00  0.1600E+02
  -3.450  0.0000E+00  0.1600E+02
  -3.440  0.0000E+00  0.1600E+02
  -3.430  0.0000E+00  0.1600E+02
  -3.420  0.0000E+00  0.1600E+02
  -3.410  0.0000E+00  0.1600E+02
  -3.400  0.0000E+00  0.1600E+02
  -3.390  0.0000E+00  0.1600E+02
  -3.380  0.0000E+00  0.1600E+02
  -3.370  0.0000E+00  0.1600E+02
  -3.360  0.0000E+00  0.1600E+02
  -3.350  0.0000E+00  0.1600E+02
  -3.340  0.0000E+00  0.1600E+02
  -3.330  0.0000E+00  0.1600E+02
  -3.320  0.0000E+00  0.1600E+02
  -3.310  0.0000E+00  0.1600E+02
  -3.300  0.0000E+00  0.1600E+02
  -3.290  0.0000E+00  0.1600E+02
  -3.280  0.0000E+00  0.1600E+02
  -3.270  0.0000E+00  0.1600E+02
  -3.260  0.0000E+00  0.1600E+02
  -3.250  0.0000E+00  0.1600E+02
  -3.240  0.0000E+00  0.1600E+02
  -3.230  0.0000E+00  0.1600E+02
  -3.220  0.0000E+00  0.1600E+02
  -3.210  0.0000E+00  0.1600E+02
  -3.200  0.0000E+00  0.1600E+02
  -3.190  0.0000E+00  0.1600E+02
  -3.180  0.0000E+00  0.1600E+02
  -3.170  0.0000E+00  0.1600E+02
  -3.160  0.0000E+00  0.1600E+02
  -3.150  0.0000E+00  0.1600E+02
  -3.140  0.0000E+00  0.1600E+02
  -3.130  0.0000E+00  0.1600E+02
  -3.120  0.0000E+00  0.1600E+02
  -3.110  0.0000E+00  0.1600E+02
  -3.100  0.0000E+00  0.1600E+02
  -3.090  0.0000E+00  0.1600E+02
  -3.080  0.0000E+00  0.1600E+02
  -3.070  0.0000E+00  0.1600E+02
  -3.060  0.0000E+00  0.1600E+02
  -3.050  0.0000E+00  0.1600E+02
  -3.040  0.0000E+00  0.1600E+02
  -3.030  0.0000E+00  0.1600E+02
  -3.020  0.0000E+00  0.1600E+02
  -3.010  0.0000E+00  0.1600E+02
  -3.000  0.0000E+00  0.1600E+02
  -2.990  0.0000E+00  0.1600E+02
  -2.980  0.0000E+00  0.1600E+02
  -2.970  0.0000E+00  0.1600E+02
  -2.960  0.0000E+00  0.1600E+02
  -2.950  0.0000E+00  0.1600E+02
  -2.940  0.0000E+00  0.1600E+02
  -2.930  0.0000E+00  0.1600E+02
  -2.920  0.0000E+00  0.1600E+02
  -2.910  0.0000E+00  0.1600E+02
  -2.900  0.0000E+00  0.1600E+02
  -2.890  0.0000E+00  0.1600E+02
  -2.880  0.0000E+00  0.1600E+02
  -2.870  0.0000E+00  0.1600E+02
  -2.860  0.0000E+00  0.1600E+02
  -2.850  0.0000E+00  0.1600E+02
  -2.840  0.0000E+00  0.1600E+02
  -2.830  0.0000E+00  0.1600E+02
  -2.820  0.0000E+00  0.1600E+02
  -2.810  0.0000E+00  0.1600E+02
  -2.800  0.0000E+00  0.1600E+02
  -2.790  0.0000E+00  0.1600E+02
  -2.780  0.0000E+00  0.1600E+02
  -2.770  0.0000E+00  0.1600E+02
  -2.760  0.0000E+00  0.1600E+02
  -2.750  0.0000E+00  0.1600E+02
  -2.740  0.0000E+00  0.1600E+02
  -2.730  0.0000E+00  0.1600E+02
  -2.720  0.0000E+00  0.1600E+02
  -2.710  0.0000E+00  0.1600E+02
  -2.700  0.0000E+00  0.1600E+02
  -2.690  0.0000E+00  0.1600E+02
  -2.680  0.0000E+00  0.1600E+02
  -2.670  0.0000E+00  0.1600E+02
  -2.660  0.0000E+00  0.1600E+02
  -2.650  0.0000E+00  0.1600E+02
  -2.640  0.0000E+00  0.1600E+02
  -2.630  0.0000E+00  0.1600E+02
  -2.620  0.0000E+00  0.1600E+02
  -2.610  0.0000E+00  0.1600E+02
  -2.600  0.0000E+00  0.1600E+02
  -2.590  0.0000E+00  0.1600E+02
  -2.580  0.0000E+00  0.1600E+02
  -2.570  0.0000E+00  0.1600E+02
  -2.560  0.0000E+00  0.1600E+02
  -2.550  0.0000E+00  0.1600E+02
  -2.540  0.0000E+00  0.1600E+02
  -2.530  0.0000E+00  0.1600E+02
  -2.520  0.0000E+00  0.1600E+02
  -2.510  0.0000E+00  0.1600E+02
  -2.500  0.0000E+00  0.1600E+02
  -2.490  0.0000E+00  0.1600E+02
  -2.480  0.0000E+00  0.1600E+02
  -2.470  0.0000E+00  0.1600E+02
  -2.460  0.0000E+00  0.1600E+02
  -2.450  0.0000E+00  0.1600E+02
  -2.440  0.0000E+00  0.1600E+02
  -2.430  0.0000E+00  0.1600E+02
  -2.420  0.0000E+00  0.1600E+02
  -2.410  0.0000E+00  0.1600E+02
  -2.400  0.0000E+00  0.1600E+02
  -2.390  0.0000E+00  0.1600E+02
  -2.380  0.0000E+00  0.1600E+02
  -2.370  0.0000E+00  0.1600E+02
  -2.360  0.0000E+00  0.1600E+02
  -2.350  0.0000E+00  0.1600E+02
  -2.340  0.0000E+00  0.1600E+02
  -2.330  0.0000E+00  0.1600E+02
  -2.320  0.0000E+00  0.1600E+02
  -2.310  0.0000E+00  0.1600E+02
  -2.300  0.0000E+00  0.1600E+02
  -2.290  0.0000E+00  0.1600E+02
  -2.280  0.0000E+00  0.1600E+02
  -2.270  0.0000E+00  0.1600E+02
  -2.260  0.0000E+00  0.1600E+02
  -2.250  0.0000E+00  0.1600E+02
  -2.240  0.0000E+00  0.1600E+02
  -2.230  0.0000E+00  0.1600E+02
  -2.220  0.0000E+00  0.1600E+02
  -2.210  0.0000E+00  0.1600E+02
  -2.200  0.0000E+00  0.1600E+02
  -2.190  0.0000E+00  0.1600E+02
  -2.180  0.0000E+00  0.1600E+02
  -2.170  0.0000E+00  0.1600E+02
  -2.160  0.0000E+00  0.1600E+02
  -2.150  0.0000E+00  0.1600E+02
  -2.140  0.0000E+00  0.1600E+02
  -2.130  0.0000E+00  0.1600E+02
  -2.120  0.0000E+00  0.1600E+02
  -2.110  0.0000E+00  0.1600E+02
  -2.100  0.0000E+00  0.1600E+02
  -2.090  0.0000E+00  0.1600E+02
  -2.080  0.0000E+00  0.1600E+02
  -2.070  0.0000E+00  0.1600E+02
  -2.060  0.0000E+00  0.1600E+02
  -2.050  0.0000E+00  0.1600E+02
  -2.040  0.0000E+00  0.1600E+02
  -2.030  0.0000E+00  0.1600E+02
  -2.020  0.0000E+00  0.1600E+02
  -2.010  0.0000E+00  0.1600E+02
  -2.000  0.0000E+00  0.1600E+02
  -1.990  0.0000E+00  0.1600E+02
  -1.980  0.0000E+00  0.1600E+02
  -1.970  0.0000E+00  0.1600E+02
  -1.960  0.0000E+00  0.1600E+02
  -1.950  0.0000E+00  0.1600E+02
  -1.940  0.0000E+00  0.1600E+02
  -1.930  0.0000E+00  0.1600E+02
  -1.920  0.0000E+00  0.1600E+02
  -1.910  0.0000E+00  0.1600E+02
  -1.900  0.0000E+00  0.1600E+02
  -1.890  0.0000E+00  0.1600E+02
  -1.880  0.0000E+00  0.1600E+02
  -1.870  0.0000E+00  0.1600E+02
  -1.860  0.0000E+00  0.1600E+02
  -1.850  0.0000E+00  0.1600E+02
  -1.840  0.0000E+00  0.1600E+02
  -1.830  0.0000E+00  0.1600E+02
  -1.820  0.0000E+00  0.1600E+02
  -1.810  0.0000E+00  0.1600E+02
  -1.800  0.0000E+00  0.1600E+02
  -1.790  0.0000E+00  0.1600E+02
  -1.780  0.0000E+00  0.1600E+02
  -1.770  0.0000E+00  0.1600E+02
  -1.760  0.0000E+00  0.1600E+02
  -1.750  0.0000E+00  0.1600E+02
  -1.740  0.0000E+00  0.1600E+02
  -1.730  0.0000E+00  0.1600E+02
  -1.720  0.0000E+00  0.1600E+02
  -1.710  0.0000E+00  0.1600E+02
  -1.700  0.0000E+00  0.1600E+02
  -1.690  0.0000E+00  0.1600E+02
  -1.680  0.0000E+00  0.1600E+02
  -1.670  0.0000E+00  0.1600E+02
  -1.660  0.0000E+00  0.1600E+02
  -1.650  0.0000E+00  0.1600E+02
  -1.640  0.0000E+00  0.1600E+02
  -1.630  0.0000E+00  0.1600E+02
  -1.620  0.0000E+00  0.1600E+02
  -1.610  0.0000E+00  0.1600E+02
  -1.600  0.0000E+00  0.1600E+02
  -1.590  0.0000E+00  0.1600E+02
  -1.580  0.0000E+00  0.1600E+02
  -1.570  0.0000E+00  0.1600E+02
  -1.560  0.0000E+00  0.1600E+02
  -1.550  0.0000E+00  0.1600E+02
  -1.540  0.0000E+00  0.1600E+02
  -1.530  0.0000E+00  0.1600E+02
  -1.520  0.0000E+00  0.1600E+02
  -1.510  0.0000E+00  0.1600E+02
  -1.500  0.0000E+00  0.1600E+02
  -1.490  0.0000E+00  0.1600E+02
  -1.480  0.0000E+00  0.1600E+02
  -1.470  0.0000E+00  0.1600E+02
  -1.460  0.0000E+00  0.1600E+02
  -1.450  0.0000E+00  0.1600E+02
  -1.440  0.0000E+00  0.1600E+02
  -1.430  0.0000E+00  0.1600E+02
  -1.420  0.0000E+00  0.1600E+02
  -1.410  0.0000E+00  0.1600E+02
  -1.400  0.0000E+00  0.1600E+02
  -1.390  0.0000E+00  0.1600E+02
  -1.380  0.0000E+00  0.1600E+02
  -1.370  0.0000E+00  0.1600E+02
  -1.360  0.0000E+00  0.1600E+02
  -1.350  0.0000E+00  0.1600E+02
  -1.340  0.0000E+00  0.1600E+02
  -1.330  0.0000E+00  0.1600E+02
  -1.320  0.0000E+00  0.1600E+02
  -1.310  0.0000E+00  0.1600E+02
  -1.300  0.0000E+00  0.1600E+02
  -1.290  0.0000E+00  0.1600E+02
  -1.280  0.0000E+00  0.1600E+02
  -1.270  0.0000E+00  0.1600E+02
  -1.260  0.0000E+00  0.1600E+02
  -1.250  0.0000E+00  0.1600E+02
  -1.240  0.0000E+00  0.1600E+02
  -1.230  0.0000E+00  0.1600E+02
  -1.220  0.0000E+00  0.1600E+02
  -1.210  0.0000E+00  0.1600E+02
  -1.200  0.0000E+00  0.1600E+02
  -1.190  0.0000E+00  0.1600E+02
  -1.180  0.0000E+00  0.1600E+02
  -1.170  0.0000E+00  0.1600E+02
  -1.160  0.0000E+00  0.1600E+02
  -1.150  0.0000E+00  0.1600E+02
  -1.140  0.0000E+00  0.1600E+02
  -1.130  0.0000E+00  0.1600E+02
  -1.120  0.0000E+00  0.1600E+02
  -1.110  0.0000E+00  0.1600E+02
  -1.100  0.0000E+00  0.1600E+02
  -1.090  0.0000E+00  0.1600E+02
  -1.080  0.0000E+00  0.1600E+02
  -1.070  0.0000E+00  0.1600E+02
  -1.060  0.0000E+00  0.1600E+02
  -1.050  0.0000E+00  0.1600E+02
  -1.040  0.0000E+00  0.1600E+02
  -1.030  0.0000E+00  0.1600E+02
  -1.020  0.0000E+00  0.1600E+02
  -1.010  0.0000E+00  0.1600E+02
  -1.000  0.0000E+00  0.1600E+02
  -0.990  0.0000E+00  0.1600E+02
  -0.980  0.0000E+00  0.1600E+02
  -0.970  0.0000E+00  0.1600E+02
  -0.960  0.0000E+00  0.1600E+02
  -0.950  0.0000E+00  0.1600E+02
  -0.940  0.0000E+00  0.1600E+02
  -0.930  0.0000E+00  0.1600E+02
  -0.920  0.0000E+00  0.1600E+02
  -0.910  0.0000E+00  0.1600E+02
  -0.900  0.0000E+00  0.1600E+02
  -0.890  0.0000E+00  0.1600E+02
  -0.880  0.0000E+00  0.1600E+02
  -0.870  0.0000E+00  0.1600E+02
  -0.860  0.0000E+00  0.1600E+02
  -0.850  0.0000E+00  0.1600E+02
  -0.840  0.0000E+00  0.1600E+02
  -0.830  0.0000E+00  0.1600E+02
  -0.820  0.0000E+00  0.1600E+02
  -0.810  0.0000E+00  0.1600E+02
  -0.800  0.0000E+00  0.1600E+02
  -0.790  0.0000E+00  0.1600E+02
  -0.780  0.0000E+00  0.1600E+02
  -0.770  0.0000E+00  0.1600E+02
  -0.760  0.0000E+00  0.1600E+02
  -0.750  0.0000E+00  0.1600E+02
  -0.740  0.0000E+00  0.1600E+02
  -0.730  0.0000E+00  0.1600E+02
  -0.720  0.0000E+00  0.1600E+02
  -0.710  0.0000E+00  0.1600E+02
  -0.700  0.0000E+00  0.1600E+02
  -0.690  0.0000E+00  0.1600E+02
  -0.680  0.0000E+00  0.1600E+02
  -0.670  0.0000E+00  0.1600E+02
  -0.660  0.0000E+00  0.1600E+02
  -0.650  0.0000E+00  0.1600E+02
  -0.640  0.0000E+00  0.1600E+02
  -0.630  0.0000E+00  0.1600E+02
  -0.620  0.0000E+00  0.1600E+02
  -0.610  0.0000E+00  0.1600E+02
  -0.600  0.0000E+00  0.1600E+02
  -0.590  0.0000E+00  0.1600E+02
  -0.580  0.0000E+00  0.1600E+02
  -0.570  0.0000E+00  0.1600E+02
  -0.560  0.0000E+00  0.1600E+02
  -0.550  0.0000E+00  0.1600E+02
  -0.540  0.0000E+00  0.1600E+02
  -0.530  0.0000E+00  0.1600E+02
  -0.520  0.0000E+00  0.1600E+02
  -0.510  0.0000E+00  0.1600E+02
  -0.500  0.0000E+00  0.1600E+02
  -0.490  0.0000E+00  0.1600E+02
  -0.480  0.0000E+00  0.1600E+02
  -0.470  0.0000E+00  0.1600E+02
  -0.460  0.0000E+00  0.1600E+02
  -0.450  0.0000E+00  0.1600E+02
  -0.440  0.8873E-03  0.1600E+02
  -0.430  0.1014E-01  0.1600E+02
  -0.420  0.2943E-01  0.1600E+02
  -0.410  0.5878E-01  0.1600E+02
  -0.400  0.9818E-01  0.1600E+02
  -0.390  0.1476E+00  0.1600E+02
  -0.380  0.2071E+00  0.1600E+02
  -0.370  0.2767E+00  0.1601E+02
  -0.360  0.3563E+00  0.1601E+02
  -0.350  0.4459E+00  0.1601E+02
  -0.340  0.5456E+00  0.1602E+02
  -0.330  0.6554E+00  0.1602E+02
  -0.320  0.1233E+01  0.1603E+02
  -0.310  0.1337E+01  0.1605E+02
  -0.300  0.1086E+01  0.1606E+02
  -0.290  0.1140E+01  0.1607E+02
  -0.280  0.1200E+01  0.1608E+02
  -0.270  0.1260E+01  0.1609E+02
  -0.260  0.1325E+01  0.1611E+02
  -0.250  0.1393E+01  0.1612E+02
  -0.240  0.1466E+01  0.1614E+02
  -0.230  0.1543E+01  0.1615E+02
  -0.220  0.1551E+01  0.1617E+02
  -0.210  0.1536E+01  0.1618E+02
  -0.200  0.1612E+01  0.1620E+02
  -0.190  0.1690E+01  0.1621E+02
  -0.180  0.1770E+01  0.1623E+02
  -0.170  0.1851E+01  0.1625E+02
  -0.160  0.1935E+01  0.1627E+02
  -0.150  0.2020E+01  0.1629E+02
  -0.140  0.2107E+01  0.1631E+02
  -0.130  0.2195E+01  0.1633E+02
  -0.120  0.2286E+01  0.1635E+02
  -0.110  0.2378E+01  0.1638E+02
  -0.100  0.2473E+01  0.1640E+02
  -0.090  0.2569E+01  0.1643E+02
  -0.080  0.2667E+01  0.1645E+02
  -0.070  0.2775E+01  0.1648E+02
  -0.060  0.2918E+01  0.1651E+02
  -0.050  0.3071E+01  0.1654E+02
  -0.040  0.3226E+01  0.1657E+02
  -0.030  0.3383E+01  0.1660E+02
  -0.020  0.3542E+01  0.1664E+02
  -0.010  0.3699E+01  0.1667E+02
   0.000  0.3840E+01  0.1671E+02
   0.010  0.4034E+01  0.1675E+02
   0.020  0.4233E+01  0.1679E+02
   0.030  0.4405E+01  0.1683E+02
   0.040  0.4554E+01  0.1688E+02
   0.050  0.4708E+01  0.1693E+02
   0.060  0.4874E+01  0.1697E+02
   0.070  0.5051E+01  0.1702E+02
   0.080  0.5238E+01  0.1707E+02
   0.090  0.5435E+01  0.1713E+02
   0.100  0.5646E+01  0.1718E+02
   0.110  0.5870E+01  0.1724E+02
   0.120  0.6107E+01  0.1730E+02
   0.130  0.6359E+01  0.1736E+02
   0.140  0.6624E+01  0.1743E+02
   0.150  0.6903E+01  0.1750E+02
   0.160  0.7350E+01  0.1757E+02
   0.170  0.1060E+02  0.1766E+02
   0.180  0.1813E+02  0.1779E+02
   0.190  0.1113E+02  0.1790E+02
   0.200  0.1186E+02  0.1801E+02
   0.210  0.1251E+02  0.1814E+02
   0.220  0.1467E+02  0.1827E+02
   0.230  0.1379E+02  0.1842E+02
   0.240  0.1616E+02  0.1858E+02
   0.250  0.1615E+02  0.1875E+02
   0.260  0.1620E+02  0.1891E+02
   0.270  0.1397E+02  0.1906E+02
   0.280  0.1413E+02  0.1921E+02
   0.290  0.1358E+02  0.1934E+02
   0.300  0.1275E+02  0.1948E+02
   0.310  0.1190E+02  0.1960E+02
   0.320  0.1140E+02  0.1972E+02
   0.330  0.1147E+02  0.1984E+02
   0.340  0.1056E+02  0.1995E+02
   0.350  0.7097E+01  0.2004E+02
   0.360  0.6873E+01  0.2011E+02
   0.370  0.6866E+01  0.2017E+02
   0.380  0.6677E+01  0.2024E+02
   0.390  0.6498E+01  0.2031E+02
   0.400  0.6329E+01  0.2037E+02
   0.410  0.6170E+01  0.2043E+02
   0.420  0.5122E+01  0.2049E+02
   0.430  0.3700E+01  0.2054E+02
   0.440  0.3380E+01  0.2057E+02
   0.450  0.3841E+01  0.2060E+02
   0.460  0.4373E+01  0.2065E+02
   0.470  0.5144E+01  0.2069E+02
   0.480  0.6155E+01  0.2075E+02
   0.490  0.8115E+01  0.2082E+02
   0.500  0.1048E+02  0.2091E+02
   0.510  0.1258E+02  0.2103E+02
   0.520  0.2165E+02  0.2119E+02
   0.530  0.1520E+02  0.2138E+02
   0.540  0.1685E+02  0.2154E+02
   0.550  0.1390E+02  0.2176E+02
   0.560  0.8472E+01  0.2187E+02
   0.570  0.4225E+01  0.2194E+02
   0.580  0.1945E+01  0.2196E+02
   0.590  0.1368E+01  0.2198E+02
   0.600  0.8928E+00  0.2199E+02
   0.610  0.5183E+00  0.2199E+02
   0.620  0.2450E+00  0.2200E+02
   0.630  0.7290E-01  0.2200E+02
   0.640  0.2029E-02  0.2200E+02
   0.650  0.0000E+00  0.2200E+02
   0.660  0.0000E+00  0.2200E+02
   0.670  0.0000E+00  0.2200E+02
   0.680  0.0000E+00  0.2200E+02
   0.690  0.0000E+00  0.2200E+02
   0.700  0.0000E+00  0.2200E+02
   0.710  0.0000E+00  0.2200E+02
   0.720  0.0000E+00  0.2200E+02
   0.730  0.0000E+00  0.2200E+02
   0.740  0.0000E+00  0.2200E+02
   0.750  0.0000E+00  0.2200E+02
   0.760  0.0000E+00  0.2200E+02
   0.770  0.0000E+00  0.2200E+02
   0.780  0.0000E+00  0.2200E+02
   0.790  0.0000E+00  0.2200E+02
   0.800  0.0000E+00  0.2200E+02
   0.810  0.0000E+00  0.2200E+02
   0.820  0.0000E+00  0.2200E+02
   0.830  0.0000E+00  0.2200E+02
   0.840  0.0000E+00  0.2200E+02
   0.850  0.0000E+00  0.2200E+02
   0.860  0.0000E+00  0.2200E+02
   0.870  0.0000E+00  0.2200E+02
   0.880  0.0000E+00  0.2200E+02
   0.890  0.0000E+00  0.2200E+02
   0.900  0.0000E+00  0.2200E+02
   0.910  0.0000E+00  0.2200E+02
   0.920  0.0000E+00  0.2200E+02
   0.930  0.0000E+00  0.2200E+02
   0.940  0.0000E+00  0.2200E+02
   0.950  0.0000E+00  0.2200E+02
   0.960  0.0000E+00  0.2200E+02
   0.970  0.0000E+00  0.2200E+02
   0.980  0.0000E+00  0.2200E+02
   0.990  0.0000E+00  0.2200E+02
   1.000  0.0000E+00  0.2200E+02
   1.010  0.0000E+00  0.2200E+02
   1.020  0.0000E+00  0.2200E+02
   1.030  0.0000E+00  0.2200E+02
   1.040  0.0000E+00  0.2200E+02
   1.050  0.0000E+00  0.2200E+02
   1.060  0.0000E+00  0.2200E+02
   1.070  0.0000E+00  0.2200E+02
   1.080  0.0000E+00  0.2200E+02
   1.090  0.0000E+00  0.2200E+02
   1.100  0.0000E+00  0.2200E+02
   1.110  0.0000E+00  0.2200E+02
   1.120  0.0000E+00  0.2200E+02
   1.130  0.0000E+00  0.2200E+02
   1.140  0.0000E+00  0.2200E+02
   1.150  0.0000E+00  0.2200E+02
   1.160  0.0000E+00  0.2200E+02
   1.170  0.0000E+00  0.2200E+02
   1.180  0.0000E+00  0.2200E+02
   1.190  0.0000E+00  0.2200E+02
   1.200  0.0000E+00  0.2200E+02
   1.210  0.0000E+00  0.2200E+02
   1.220  0.0000E+00  0.2200E+02
   1.230  0.0000E+00  0.2200E+02
   1.240  0.0000E+00  0.2200E+02
   1.250  0.0000E+00  0.2200E+02
   1.260  0.0000E+00  0.2200E+02
   1.270  0.0000E+00  0.2200E+02
   1.280  0.0000E+00  0.2200E+02
   1.290  0.0000E+00  0.2200E+02
   1.300  0.0000E+00  0.2200E+02
   1.310  0.0000E+00  0.2200E+02
   1.320  0.0000E+00  0.2200E+02
   1.330  0.0000E+00  0.2200E+02
   1.340  0.0000E+00  0.2200E+02
   1.350  0.0000E+00  0.2200E+02
   1.360  0.0000E+00  0.2200E+02
   1.370  0.0000E+00  0.2200E+02
   1.380  0.0000E+00  0.2200E+02
   1.390  0.0000E+00  0.2200E+02
   1.400  0.0000E+00  0.2200E+02
   1.410  0.0000E+00  0.2200E+02
   1.420  0.0000E+00  0.2200E+02
   1.430  0.0000E+00  0.2200E+02
   1.440  0.0000E+00  0.2200E+02
   1.450  0.0000E+00  0.2200E+02
   1.460  0.0000E+00  0.2200E+02
   1.470  0.0000E+00  0.2200E+02
   1.480  0.0000E+00  0.2200E+02
   1.490  0.0000E+00  0.2200E+02
   1.500  0.0000E+00  0.2200E+02
   1.510  0.0000E+00  0.2200E+02
   1.520  0.0000E+00  0.2200E+02
   1.530  0.0000E+00  0.2200E+02
   1.540  0.0000E+00  0.2200E+02
   1.550  0.0000E+00  0.2200E+02
   1.560  0.0000E+00  0.2200E+02
   1.570  0.0000E+00  0.2200E+02
   1.580  0.0000E+00  0.2200E+02
   1.590  0.0000E+00  0.2200E+02
   1.600  0.0000E+00  0.2200E+02
   1.610  0.0000E+00  0.2200E+02
   1.620  0.0000E+00  0.2200E+02
   1.630  0.0000E+00  0.2200E+02
   1.640  0.0000E+00  0.2200E+02
   1.650  0.0000E+00  0.2200E+02
   1.660  0.0000E+00  0.2200E+02
   1.670  0.0000E+00  0.2200E+02
   1.680  0.0000E+00  0.2200E+02
   1.690  0.0000E+00  0.2200E+02
   1.700  0.0000E+00  0.2200E+02
   1.710  0.0000E+00  0.2200E+02
   1.720  0.0000E+00  0.2200E+02
   1.730  0.0000E+00  0.2200E+02
   1.740  0.0000E+00  0.2200E+02
   1.750  0.0000E+00  0.2200E+02
   1.760  0.0000E+00  0.2200E+02
   1.770  0.0000E+00  0.2200E+02
   1.780  0.0000E+00  0.2200E+02
   1.790  0.0000E+00  0.2200E+02
   1.800  0.0000E+00  0.2200E+02
   1.810  0.0000E+00  0.2200E+02
   1.820  0.0000E+00  0.2200E+02
   1.830  0.0000E+00  0.2200E+02
   1.840  0.0000E+00  0.2200E+02
   1.850  0.0000E+00  0.2200E+02
   1.860  0.0000E+00  0.2200E+02
   1.870  0.0000E+00  0.2200E+02
   1.880  0.0000E+00  0.2200E+02
   1.890  0.0000E+00  0.2200E+02
   1.900  0.0000E+00  0.2200E+02
   1.910  0.0000E+00  0.2200E+02
   1.920  0.0000E+00  0.2200E+02
   1.930  0.0000E+00  0.2200E+02
   1.940  0.0000E+00  0.2200E+02
   1.950  0.0000E+00  0.2200E+02
   1.960  0.0000E+00  0.2200E+02
   1.970  0.0000E+00  0.2200E+02
   1.980  0.0000E+00  0.2200E+02
   1.990  0.0000E+00  0.2200E+02
   2.000  0.0000E+00  0.2200E+02
   2.010  0.0000E+00  0.2200E+02
   2.020  0.0000E+00  0.2200E+02
   2.030  0.0000E+00  0.2200E+02
   2.040  0.0000E+00  0.2200E+02
   2.050  0.0000E+00  0.2200E+02
   2.060  0.0000E+00  0.2200E+02
   2.070  0.0000E+00  0.2200E+02
   2.080  0.0000E+00  0.2200E+02
   2.090  0.0000E+00  0.2200E+02
   2.100  0.0000E+00  0.2200E+02
   2.110  0.0000E+00  0.2200E+02
   2.120  0.0000E+00  0.2200E+02
   2.130  0.0000E+00  0.2200E+02
   2.140  0.0000E+00  0.2200E+02
   2.150  0.0000E+00  0.2200E+02
   2.160  0.0000E+00  0.2200E+02
   2.170  0.0000E+00  0.2200E+02
   2.180  0.0000E+00  0.2200E+02
   2.190  0.0000E+00  0.2200E+02
   2.200  0.0000E+00  0.2200E+02
   2.210  0.0000E+00  0.2200E+02
   2.220  0.0000E+00  0.2200E+02
   2.230  0.0000E+00  0.2200E+02
   2.240  0.0000E+00  0.2200E+02
   2.250  0.0000E+00  0.2200E+02
   2.260  0.0000E+00  0.2200E+02
   2.270  0.0000E+00  0.2200E+02
   2.280  0.0000E+00  0.2200E+02
   2.290  0.0000E+00  0.2200E+02
   2.300  0.0000E+00  0.2200E+02
   2.310  0.0000E+00  0.2200E+02
   2.320  0.0000E+00  0.2200E+02
   2.330  0.0000E+00  0.2200E+02
   2.340  0.0000E+00  0.2200E+02
   2.350  0.0000E+00  0.2200E+02
   2.360  0.0000E+00  0.2200E+02
   2.370  0.0000E+00  0.2200E+02
   2.380  0.0000E+00  0.2200E+02
   2.390  0.0000E+00  0.2200E+02
   2.400  0.0000E+00  0.2200E+02
   2.410  0.0000E+00  0.2200E+02
   2.420  0.0000E+00  0.2200E+02
   2.430  0.0000E+00  0.2200E+02
   2.440  0.0000E+00  0.2200E+02
   2.450  0.0000E+00  0.2200E+02
   2.460  0.0000E+00  0.2200E+02
   2.470  0.0000E+00  0.2200E+02
   2.480  0.0000E+00  0.2200E+02
   2.490  0.0000E+00  0.2200E+02
   2.500  0.0000E+00  0.2200E+02
   2.510  0.0000E+00  0.2200E+02
   2.520  0.0000E+00  0.2200E+02
   2.530  0.0000E+00  0.2200E+02
   2.540  0.0000E+00  0.2200E+02
   2.550  0.0000E+00  0.2200E+02
   2.560  0.0000E+00  0.2200E+02
   2.570  0.0000E+00  0.2200E+02
   2.580  0.0000E+00  0.2200E+02
   2.590  0.0000E+00  0.2200E+02
   2.600  0.0000E+00  0.2200E+02
   2.610  0.0000E+00  0.2200E+02
   2.620  0.0000E+00  0.2200E+02
   2.630  0.0000E+00  0.2200E+02
   2.640  0.0000E+00  0.2200E+02
   2.650  0.0000E+00  0.2200E+02
   2.660  0.0000E+00  0.2200E+02
   2.670  0.0000E+00  0.2200E+02
   2.680  0.0000E+00  0.2200E+02
   2.690  0.0000E+00  0.2200E+02
   2.700  0.0000E+00  0.2200E+02
   2.710  0.0000E+00  0.2200E+02
   2.720  0.0000E+00  0.2200E+02
   2.730  0.0000E+00  0.2200E+02
   2.740  0.0000E+00  0.2200E+02
   2.750  0.0000E+00  0.2200E+02
   2.760  0.0000E+00  0.2200E+02
   2.770  0.0000E+00  0.2200E+02
   2.780  0.0000E+00  0.2200E+02
   2.790  0.0000E+00  0.2200E+02
   2.800  0.0000E+00  0.2200E+02
   2.810  0.0000E+00  0.2200E+02
   2.820  0.0000E+00  0.2200E+02
   2.830  0.0000E+00  0.2200E+02
   2.840  0.0000E+00  0.2200E+02
   2.850  0.0000E+00  0.2200E+02
   2.860  0.0000E+00  0.2200E+02
   2.870  0.0000E+00  0.2200E+02
   2.880  0.0000E+00  0.2200E+02
   2.890  0.0000E+00  0.2200E+02
   2.900  0.0000E+00  0.2200E+02
   2.910  0.0000E+00  0.2200E+02
   2.920  0.0000E+00  0.2200E+02
   2.930  0.0000E+00  0.2200E+02
   2.940  0.0000E+00  0.2200E+02
   2.950  0.0000E+00  0.2200E+02
   2.960  0.0000E+00  0.2200E+02
   2.970  0.0000E+00  0.2200E+02
   2.980  0.0000E+00  0.2200E+02
   2.990  0.0000E+00  0.2200E+02
   3.000  0.0000E+00  0.2200E+02
   3.010  0.0000E+00  0.2200E+02
   3.020  0.0000E+00  0.2200E+02
   3.030  0.0000E+00  0.2200E+02
   3.040  0.0000E+00  0.2200E+02
   3.050  0.0000E+00  0.2200E+02
   3.060  0.0000E+00  0.2200E+02
   3.070  0.0000E+00  0.2200E+02
   3.080  0.0000E+00  0.2200E+02
   3.090  0.0000E+00  0.2200E+02
   3.100  0.0000E+00  0.2200E+02
   3.110  0.0000E+00  0.2200E+02
   3.120  0.0000E+00  0.2200E+02
   3.130  0.0000E+00  0.2200E+02
   3.140  0.0000E+00  0.2200E+02
   3.150  0.0000E+00  0.2200E+02
   3.160  0.0000E+00  0.2200E+02
   3.170  0.0000E+00  0.2200E+02
   3.180  0.0000E+00  0.2200E+02
   3.190  0.0000E+00  0.2200E+02
   3.200  0.0000E+00  0.2200E+02
   3.210  0.0000E+00  0.2200E+02
   3.220  0.0000E+00  0.2200E+02
   3.230  0.0000E+00  0.2200E+02
   3.240  0.0000E+00  0.2200E+02
   3.250  0.0000E+00  0.2200E+02
   3.260  0.0000E+00  0.2200E+02
   3.270  0.0000E+00  0.2200E+02
   3.280  0.0000E+00  0.2200E+02
   3.290  0.0000E+00  0.2200E+02
   3.300  0.0000E+00  0.2200E+02
   3.310  0.0000E+00  0.2200E+02
   3.320  0.0000E+00  0.2200E+02
   3.330  0.0000E+00  0.2200E+02
   3.340  0.0000E+00  0.2200E+02
   3.350  0.0000E+00  0.2200E+02
   3.360  0.0000E+00  0.2200E+02
   3.370  0.0000E+00  0.2200E+02
   3.380  0.0000E+00  0.2200E+02
   3.390  0.0000E+00  0.2200E+02
   3.400  0.0000E+00  0.2200E+02
   3.410  0.0000E+00  0.2200E+02
   3.420  0.0000E+00  0.2200E+02
   3.430  0.0000E+00  0.2200E+02
   3.440  0.0000E+00  0.2200E+02
   3.450  0.0000E+00  0.2200E+02
   3.460  0.0000E+00  0.2200E+02
   3.470  0.0000E+00  0.2200E+02
   3.480  0.0000E+00  0.2200E+02
   3.490  0.0000E+00  0.2200E+02
   3.500  0.0000E+00  0.2200E+02
   3.510  0.0000E+00  0.2200E+02
   3.520  0.0000E+00  0.2200E+02
   3.530  0.0000E+00  0.2200E+02
   3.540  0.0000E+00  0.2200E+02
   3.550  0.0000E+00  0.2200E+02
   3.560  0.0000E+00  0.2200E+02
   3.570  0.0000E+00  0.2200E+02
   3.580  0.0000E+00  0.2200E+02
   3.590  0.0000E+00  0.2200E+02
   3.600  0.0000E+00  0.2200E+02
   3.610  0.0000E+00  0.2200E+02
   3.620  0.0000E+00  0.2200E+02
   3.630  0.0000E+00  0.2200E+02
   3.640  0.0000E+00  0.2200E+02
   3.650  0.0000E+00  0.2200E+02
   3.660  0.0000E+00  0.2200E+02
   3.670  0.0000E+00  0.2200E+02
   3.680  0.0000E+00  0.2200E+02
   3.690  0.0000E+00  0.2200E+02
   3.700  0.0000E+00  0.2200E+02
   3.710  0.0000E+00  0.2200E+02
   3.720  0.0000E+00  0.2200E+02
   3.730  0.0000E+00  0.2200E+02
   3.740  0.0000E+00  0.2200E+02
   3.750  0.0000E+00  0.2200E+02
   3.760  0.0000E+00  0.2200E+02
   3.770  0.0000E+00  0.2200E+02
   3.780  0.0000E+00  0.2200E+02
   3.790  0.0000E+00  0.2200E+02
   3.800  0.0000E+00  0.2200E+02
   3.810  0.0000E+00  0.2200E+02
   3.820  0.0000E+00  0.2200E+02
   3.830  0.0000E+00  0.2200E+02
   3.840  0.0000E+00  0.2200E+02
   3.850  0.0000E+00  0.2200E+02
   3.860  0.0000E+00  0.2200E+02
   3.870  0.0000E+00  0.2200E+02
   3.880  0.0000E+00  0.2200E+02
   3.890  0.0000E+00  0.2200E+02
   3.900  0.0000E+00  0.2200E+02
   3.910  0.0000E+00  0.2200E+02
   3.920  0.0000E+00  0.2200E+02
   3.930  0.0000E+00  0.2200E+02
   3.940  0.0000E+00  0.2200E+02
   3.950  0.0000E+00  0.2200E+02
   3.960  0.0000E+00  0.2200E+02
   3.970  0.0000E+00  0.2200E+02
   3.980  0.0000E+00  0.2200E+02
   3.990  0.0000E+00  0.2200E+02
   4.000  0.0000E+00  0.2200E+02
   4.010  0.0000E+00  0.2200E+02
   4.020  0.0000E+00  0.2200E+02
   4.030  0.0000E+00  0.2200E+02
   4.040  0.0000E+00  0.2200E+02
   4.050  0.0000E+00  0.2200E+02
   4.060  0.0000E+00  0.2200E+02
   4.070  0.0000E+00  0.2200E+02
   4.080  0.0000E+00  0.2200E+02
   4.090  0.0000E+00  0.2200E+02
   4.100  0.0000E+00  0.2200E+02
   4.110  0.0000E+00  0.2200E+02
   4.120  0.0000E+00  0.2200E+02
   4.130  0.0000E+00  0.2200E+02
   4.140  0.0000E+00  0.2200E+02
   4.150  0.0000E+00  0.2200E+02
   4.160  0.0000E+00  0.2200E+02
   4.170  0.0000E+00  0.2200E+02
   4.180  0.0000E+00  0.2200E+02
   4.190  0.0000E+00  0.2200E+02
   4.200  0.0000E+00  0.2200E+02
   4.210  0.0000E+00  0.2200E+02
   4.220  0.0000E+00  0.2200E+02
   4.230  0.0000E+00  0.2200E+02
   4.240  0.0000E+00  0.2200E+02
   4.250  0.0000E+00  0.2200E+02
   4.260  0.0000E+00  0.2200E+02
   4.270  0.0000E+00  0.2200E+02
   4.280  0.0000E+00  0.2200E+02
   4.290  0.0000E+00  0.2200E+02
   4.300  0.0000E+00  0.2200E+02
   4.310  0.0000E+00  0.2200E+02
   4.320  0.0000E+00  0.2200E+02
   4.330  0.0000E+00  0.2200E+02
   4.340  0.0000E+00  0.2200E+02
   4.350  0.0000E+00  0.2200E+02
   4.360  0.0000E+00  0.2200E+02
   4.370  0.0000E+00  0.2200E+02
   4.380  0.0000E+00  0.2200E+02
   4.390  0.0000E+00  0.2200E+02
   4.400  0.0000E+00  0.2200E+02
   4.410  0.0000E+00  0.2200E+02
   4.420  0.0000E+00  0.2200E+02
   4.430  0.0000E+00  0.2200E+02
   4.440  0.0000E+00  0.2200E+02
   4.450  0.0000E+00  0.2200E+02
   4.460  0.0000E+00  0.2200E+02
   4.470  0.0000E+00  0.2200E+02
   4.480  0.0000E+00  0.2200E+02
   4.490  0.0000E+00  0.2200E+02
   4.500  0.0000E+00  0.2200E+02
   4.510  0.0000E+00  0.2200E+02
   4.520  0.0000E+00  0.2200E+02
   4.530  0.0000E+00  0.2200E+02
   4.540  0.0000E+00  0.2200E+02
   4.550  0.0000E+00  0.2200E+02
   4.560  0.0000E+00  0.2200E+02
   4.570  0.0000E+00  0.2200E+02
   4.580  0.0000E+00  0.2200E+02
   4.590  0.0000E+00  0.2200E+02
   4.600  0.0000E+00  0.2200E+02
   4.610  0.0000E+00  0.2200E+02
   4.620  0.0000E+00  0.2200E+02
   4.630  0.0000E+00  0.2200E+02
   4.640  0.0000E+00  0.2200E+02
   4.650  0.0000E+00  0.2200E+02
   4.660  0.0000E+00  0.2200E+02
   4.670  0.0000E+00  0.2200E+02
   4.680  0.0000E+00  0.2200E+02
   4.690  0.0000E+00  0.2200E+02
   4.700  0.0000E+00  0.2200E+02
   4.710  0.0000E+00  0.2200E+02
   4.720  0.0000E+00  0.2200E+02
   4.730  0.0000E+00  0.2200E+02
   4.740  0.0000E+00  0.2200E+02
   4.750  0.0000E+00  0.2200E+02
   4.760  0.0000E+00  0.2200E+02
   4.770  0.0000E+00  0.2200E+02
   4.780  0.0000E+00  0.2200E+02
   4.790  0.0000E+00  0.2200E+02
   4.800  0.0000E+00  0.2200E+02
   4.810  0.0000E+00  0.2200E+02
   4.820  0.0000E+00  0.2200E+02
   4.830  0.0000E+00  0.2200E+02
   4.840  0.0000E+00  0.2200E+02
   4.850  0.0000E+00  0.2200E+02
   4.860  0.0000E+00  0.2200E+02
   4.870  0.0000E+00  0.2200E+02
   4.880  0.0000E+00  0.2200E+02
   4.890  0.0000E+00  0.2200E+02
   4.900  0.0000E+00  0.2200E+02
   4.910  0.0000E+00  0.2200E+02
   4.920  0.0000E+00  0.2200E+02
   4.930  0.0000E+00  0.2200E+02
   4.940  0.0000E+00  0.2200E+02
   4.950  0.0000E+00  0.2200E+02
   4.960  0.0000E+00  0.2200E+02
   4.970  0.0000E+00  0.2200E+02
   4.980  0.0000E+00  0.2200E+02
   4.990  0.0000E+00  0.2200E+02
   5.000  0.0000E+00  0.2200E+02
   5.010  0.0000E+00  0.2200E+02
   5.020  0.0000E+00  0.2200E+02
   5.030  0.0000E+00  0.2200E+02
   5.040  0.0000E+00  0.2200E+02
   5.050  0.0000E+00  0.2200E+02
   5.060  0.0000E+00  0.2200E+02
   5.070  0.0000E+00  0.2200E+02
   5.080  0.0000E+00  0.2200E+02
   5.090  0.0000E+00  0.2200E+02
   5.100  0.0000E+00  0.2200E+02
   5.110  0.0000E+00  0.2200E+02
   5.120  0.0000E+00  0.2200E+02
   5.130  0.0000E+00  0.2200E+02
   5.140  0.0000E+00  0.2200E+02
   5.150  0.0000E+00  0.2200E+02
   5.160  0.0000E+00  0.2200E+02
   5.170  0.0000E+00  0.2200E+02
   5.180  0.0000E+00  0.2200E+02
   5.190  0.0000E+00  0.2200E+02
   5.200  0.0000E+00  0.2200E+02
   5.210  0.0000E+00  0.2200E+02
   5.220  0.0000E+00  0.2200E+02
   5.230  0.0000E+00  0.2200E+02
   5.240  0.0000E+00  0.2200E+02
   5.250  0.0000E+00  0.2200E+02
   5.260  0.0000E+00  0.2200E+02
   5.270  0.0000E+00  0.2200E+02
   5.280  0.0000E+00  0.2200E+02
   5.290  0.0000E+00  0.2200E+02
   5.300  0.0000E+00  0.2200E+02
   5.310  0.0000E+00  0.2200E+02
   5.320  0.0000E+00  0.2200E+02
   5.330  0.0000E+00  0.2200E+02
   5.340  0.0000E+00  0.2200E+02
   5.350  0.0000E+00  0.2200E+02
   5.360  0.0000E+00  0.2200E+02
   5.370  0.0000E+00  0.2200E+02
   5.380  0.0000E+00  0.2200E+02
   5.390  0.0000E+00  0.2200E+02
   5.400  0.0000E+00  0.2200E+02
   5.410  0.0000E+00  0.2200E+02
   5.420  0.0000E+00  0.2200E+02
   5.430  0.0000E+00  0.2200E+02
   5.440  0.0000E+00  0.2200E+02
   5.450  0.0000E+00  0.2200E+02
   5.460  0.0000E+00  0.2200E+02
   5.470  0.0000E+00  0.2200E+02
   5.480  0.0000E+00  0.2200E+02
   5.490  0.0000E+00  0.2200E+02
   5.500  0.0000E+00  0.2200E+02
   5.510  0.0000E+00  0.2200E+02
   5.520  0.0000E+00  0.2200E+02
   5.530  0.0000E+00  0.2200E+02
   5.540  0.0000E+00  0.2200E+02
   5.550  0.0000E+00  0.2200E+02
   5.560  0.0000E+00  0.2200E+02
   5.570  0.0000E+00  0.2200E+02
   5.580  0.0000E+00  0.2200E+02
   5.590  0.0000E+00  0.2200E+02
   5.600  0.0000E+00  0.2200E+02
   5.610  0.0000E+00  0.2200E+02
   5.620  0.0000E+00  0.2200E+02
   5.630  0.0000E+00  0.2200E+02
   5.640  0.0000E+00  0.2200E+02
   5.650  0.0000E+00  0.2200E+02
   5.660  0.0000E+00  0.2200E+02
   5.670  0.0000E+00  0.2200E+02
   5.680  0.0000E+00  0.2200E+02
   5.690  0.0000E+00  0.2200E+02
   5.700  0.0000E+00  0.2200E+02
   5.710  0.0000E+00  0.2200E+02
   5.720  0.6128E-03  0.2200E+02
   5.730  0.3974E-02  0.2200E+02
   5.740  0.1027E-01  0.2200E+02
   5.750  0.1949E-01  0.2200E+02
   5.760  0.3165E-01  0.2200E+02
   5.770  0.4674E-01  0.2200E+02
   5.780  0.6475E-01  0.2200E+02
   5.790  0.8571E-01  0.2200E+02
   5.800  0.1096E+00  0.2200E+02
   5.810  0.1364E+00  0.2200E+02
   5.820  0.1661E+00  0.2201E+02
   5.830  0.1965E+00  0.2201E+02
   5.840  0.2295E+00  0.2201E+02
   5.850  0.2690E+00  0.2201E+02
   5.860  0.3151E+00  0.2202E+02
   5.870  0.3678E+00  0.2202E+02
   5.880  0.4271E+00  0.2202E+02
   5.890  0.4929E+00  0.2203E+02
   5.900  0.5858E+00  0.2203E+02
   5.910  0.7731E+00  0.2204E+02
   5.920  0.9560E+00  0.2205E+02
   5.930  0.1135E+01  0.2206E+02
   5.940  0.1309E+01  0.2207E+02
   5.950  0.1479E+01  0.2208E+02
   5.960  0.1638E+01  0.2210E+02
   5.970  0.1790E+01  0.2212E+02
   5.980  0.1940E+01  0.2214E+02
   5.990  0.2087E+01  0.2216E+02
   6.000  0.2232E+01  0.2218E+02
   6.010  0.2374E+01  0.2220E+02
   6.020  0.2514E+01  0.2223E+02
   6.030  0.2424E+01  0.2225E+02
   6.040  0.2599E+01  0.2228E+02
   6.050  0.2762E+01  0.2230E+02
   6.060  0.2913E+01  0.2233E+02
   6.070  0.3051E+01  0.2236E+02
   6.080  0.3178E+01  0.2239E+02
   6.090  0.3292E+01  0.2242E+02
   6.100  0.3395E+01  0.2246E+02
   6.110  0.3488E+01  0.2249E+02
   6.120  0.3580E+01  0.2253E+02
   6.130  0.3671E+01  0.2256E+02
   6.140  0.3741E+01  0.2260E+02
   6.150  0.3785E+01  0.2264E+02
   6.160  0.3811E+01  0.2268E+02
   6.170  0.3819E+01  0.2271E+02
   6.180  0.3808E+01  0.2275E+02
   6.190  0.3881E+01  0.2279E+02
   6.200  0.3753E+01  0.2283E+02
   6.210  0.3629E+01  0.2287E+02
   6.220  0.3537E+01  0.2290E+02
   6.230  0.3444E+01  0.2294E+02
   6.240  0.3352E+01  0.2297E+02
   6.250  0.3261E+01  0.2300E+02
   6.260  0.3170E+01  0.2304E+02
   6.270  0.3079E+01  0.2307E+02
   6.280  0.2989E+01  0.2310E+02
   6.290  0.2907E+01  0.2313E+02
   6.300  0.2843E+01  0.2316E+02
   6.310  0.2785E+01  0.2318E+02
   6.320  0.2733E+01  0.2321E+02
   6.330  0.2687E+01  0.2324E+02
   6.340  0.2620E+01  0.2326E+02
   6.350  0.2557E+01  0.2329E+02
   6.360  0.2503E+01  0.2332E+02
   6.370  0.2487E+01  0.2334E+02
   6.380  0.2740E+01  0.2337E+02
   6.390  0.2777E+01  0.2339E+02
   6.400  0.2727E+01  0.2342E+02
   6.410  0.2801E+01  0.2345E+02
   6.420  0.2877E+01  0.2348E+02
   6.430  0.2956E+01  0.2351E+02
   6.440  0.3037E+01  0.2354E+02
   6.450  0.3121E+01  0.2357E+02
   6.460  0.3208E+01  0.2360E+02
   6.470  0.3282E+01  0.2363E+02
   6.480  0.3288E+01  0.2366E+02
   6.490  0.3379E+01  0.2370E+02
   6.500  0.3468E+01  0.2373E+02
   6.510  0.3556E+01  0.2377E+02
   6.520  0.3642E+01  0.2380E+02
   6.530  0.3727E+01  0.2384E+02
   6.540  0.3858E+01  0.2388E+02
   6.550  0.4063E+01  0.2392E+02
   6.560  0.4399E+01  0.2396E+02
   6.570  0.4462E+01  0.2401E+02
   6.580  0.4353E+01  0.2405E+02
   6.590  0.4252E+01  0.2409E+02
   6.600  0.4158E+01  0.2413E+02
   6.610  0.4072E+01  0.2418E+02
   6.620  0.4205E+01  0.2422E+02
   6.630  0.4432E+01  0.2426E+02
   6.640  0.4616E+01  0.2430E+02
   6.650  0.4760E+01  0.2435E+02
   6.660  0.3827E+01  0.2439E+02
   6.670  0.3845E+01  0.2443E+02
   6.680  0.3863E+01  0.2447E+02
   6.690  0.3891E+01  0.2451E+02
   6.700  0.3930E+01  0.2455E+02
   6.710  0.3970E+01  0.2459E+02
   6.720  0.4010E+01  0.2463E+02
   6.730  0.4050E+01  0.2467E+02
   6.740  0.4091E+01  0.2471E+02
   6.750  0.4133E+01  0.2475E+02
   6.760  0.4175E+01  0.2479E+02
   6.770  0.4218E+01  0.2483E+02
   6.780  0.4261E+01  0.2488E+02
   6.790  0.4305E+01  0.2492E+02
   6.800  0.4349E+01  0.2496E+02
   6.810  0.4394E+01  0.2501E+02
   6.820  0.4440E+01  0.2505E+02
   6.830  0.4486E+01  0.2509E+02
   6.840  0.4532E+01  0.2514E+02
   6.850  0.4579E+01  0.2518E+02
   6.860  0.4530E+01  0.2523E+02
   6.870  0.4125E+01  0.2527E+02
   6.880  0.3932E+01  0.2531E+02
   6.890  0.3780E+01  0.2535E+02
   6.900  0.3670E+01  0.2539E+02
   6.910  0.3602E+01  0.2543E+02
   6.920  0.3575E+01  0.2546E+02
   6.930  0.3564E+01  0.2550E+02
   6.940  0.3600E+01  0.2553E+02
   6.950  0.3640E+01  0.2557E+02
   6.960  0.3681E+01  0.2561E+02
   6.970  0.3725E+01  0.2564E+02
   6.980  0.3772E+01  0.2568E+02
   6.990  0.3808E+01  0.2572E+02
   7.000  0.3740E+01  0.2576E+02
   7.010  0.3677E+01  0.2579E+02
   7.020  0.3619E+01  0.2583E+02
   7.030  0.3565E+01  0.2587E+02
   7.040  0.3515E+01  0.2590E+02
   7.050  0.3470E+01  0.2594E+02
   7.060  0.3430E+01  0.2597E+02
   7.070  0.3448E+01  0.2600E+02
   7.080  0.3429E+01  0.2604E+02
   7.090  0.3410E+01  0.2607E+02
   7.100  0.3391E+01  0.2611E+02
   7.110  0.3371E+01  0.2614E+02
   7.120  0.3351E+01  0.2617E+02
   7.130  0.3485E+01  0.2621E+02
   7.140  0.3513E+01  0.2624E+02
   7.150  0.3519E+01  0.2628E+02
   7.160  0.3524E+01  0.2631E+02
   7.170  0.3526E+01  0.2635E+02
   7.180  0.3527E+01  0.2638E+02
   7.190  0.3527E+01  0.2642E+02
   7.200  0.3524E+01  0.2645E+02
   7.210  0.3520E+01  0.2649E+02
   7.220  0.3514E+01  0.2652E+02
   7.230  0.3506E+01  0.2656E+02
   7.240  0.3496E+01  0.2659E+02
   7.250  0.3517E+01  0.2663E+02
   7.260  0.3717E+01  0.2667E+02
   7.270  0.4460E+01  0.2671E+02
   7.280  0.5069E+01  0.2675E+02
   7.290  0.5592E+01  0.2681E+02
   7.300  0.6291E+01  0.2687E+02
   7.310  0.8210E+01  0.2694E+02
   7.320  0.7978E+01  0.2702E+02
   7.330  0.7661E+01  0.2710E+02
   7.340  0.7434E+01  0.2717E+02
   7.350  0.7284E+01  0.2725E+02
   7.360  0.7210E+01  0.2732E+02
   7.370  0.7148E+01  0.2739E+02
   7.380  0.7063E+01  0.2746E+02
   7.390  0.6955E+01  0.2753E+02
   7.400  0.7389E+01  0.2760E+02
   7.410  0.7174E+01  0.2768E+02
   7.420  0.6959E+01  0.2775E+02
   7.430  0.6830E+01  0.2782E+02
   7.440  0.7049E+01  0.2789E+02
   7.450  0.6476E+01  0.2796E+02
   7.460  0.6582E+01  0.2802E+02
   7.470  0.6741E+01  0.2809E+02
   7.480  0.6883E+01  0.2816E+02
   7.490  0.7008E+01  0.2823E+02
   7.500  0.7116E+01  0.2830E+02
   7.510  0.7207E+01  0.2837E+02
   7.520  0.8587E+01  0.2845E+02
   7.530  0.8188E+01  0.2853E+02
   7.540  0.7953E+01  0.2861E+02
   7.550  0.7692E+01  0.2869E+02
   7.560  0.7408E+01  0.2876E+02
   7.570  0.3967E+01  0.2884E+02
   7.580  0.3969E+01  0.2888E+02
   7.590  0.3985E+01  0.2892E+02
   7.600  0.4016E+01  0.2896E+02
   7.610  0.4095E+01  0.2900E+02
   7.620  0.4182E+01  0.2904E+02
   7.630  0.4277E+01  0.2909E+02
   7.640  0.4520E+01  0.2913E+02
   7.650  0.4547E+01  0.2918E+02
   7.660  0.4652E+01  0.2923E+02
   7.670  0.4765E+01  0.2927E+02
   7.680  0.4915E+01  0.2932E+02
   7.690  0.5965E+01  0.2938E+02
   7.700  0.7152E+01  0.2944E+02
   7.710  0.8388E+01  0.2952E+02
   7.720  0.1029E+02  0.2961E+02
   7.730  0.1429E+02  0.2973E+02
   7.740  0.2076E+02  0.2990E+02
   7.750  0.1270E+02  0.3006E+02
   7.760  0.1136E+02  0.3018E+02
   7.770  0.8886E+01  0.3029E+02
   7.780  0.7174E+01  0.3036E+02
   7.790  0.6058E+01  0.3044E+02
   7.800  0.5883E+01  0.3050E+02
   7.810  0.5801E+01  0.3056E+02
   7.820  0.5723E+01  0.3062E+02
   7.830  0.5649E+01  0.3067E+02
   7.840  0.5580E+01  0.3073E+02
   7.850  0.5515E+01  0.3079E+02
   7.860  0.5455E+01  0.3084E+02
   7.870  0.5098E+01  0.3089E+02
   7.880  0.4677E+01  0.3094E+02
   7.890  0.4605E+01  0.3099E+02
   7.900  0.4532E+01  0.3103E+02
   7.910  0.4462E+01  0.3108E+02
   7.920  0.4394E+01  0.3112E+02
   7.930  0.4371E+01  0.3117E+02
   7.940  0.4444E+01  0.3121E+02
   7.950  0.4510E+01  0.3126E+02
   7.960  0.4513E+01  0.3130E+02
   7.970  0.4580E+01  0.3135E+02
   7.980  0.4636E+01  0.3139E+02
   7.990  0.4681E+01  0.3144E+02
   8.000  0.4607E+01  0.3149E+02
   8.010  0.4514E+01  0.3153E+02
   8.020  0.4421E+01  0.3158E+02
   8.030  0.4326E+01  0.3162E+02
   8.040  0.4546E+01  0.3167E+02
   8.050  0.4343E+01  0.3171E+02
   8.060  0.4143E+01  0.3175E+02
   8.070  0.3946E+01  0.3179E+02
   8.080  0.3754E+01  0.3183E+02
   8.090  0.3565E+01  0.3187E+02
   8.100  0.3380E+01  0.3190E+02
   8.110  0.3228E+01  0.3194E+02
   8.120  0.2792E+01  0.3197E+02
   8.130  0.2744E+01  0.3200E+02
   8.140  0.2699E+01  0.3202E+02
   8.150  0.2656E+01  0.3205E+02
   8.160  0.2615E+01  0.3208E+02
   8.170  0.2577E+01  0.3210E+02
   8.180  0.2542E+01  0.3213E+02
   8.190  0.2509E+01  0.3215E+02
   8.200  0.2478E+01  0.3218E+02
   8.210  0.2450E+01  0.3220E+02
   8.220  0.2422E+01  0.3223E+02
   8.230  0.2396E+01  0.3225E+02
   8.240  0.2375E+01  0.3227E+02
   8.250  0.2360E+01  0.3230E+02
   8.260  0.2346E+01  0.3232E+02
   8.270  0.2332E+01  0.3234E+02
   8.280  0.2339E+01  0.3237E+02
   8.290  0.2355E+01  0.3239E+02
   8.300  0.2371E+01  0.3242E+02
   8.310  0.2385E+01  0.3244E+02
   8.320  0.2399E+01  0.3246E+02
   8.330  0.2412E+01  0.3249E+02
   8.340  0.2424E+01  0.3251E+02
   8.350  0.2436E+01  0.3254E+02
   8.360  0.2447E+01  0.3256E+02
   8.370  0.2457E+01  0.3258E+02
   8.380  0.2466E+01  0.3261E+02
   8.390  0.2474E+01  0.3263E+02
   8.400  0.2500E+01  0.3266E+02
   8.410  0.2506E+01  0.3268E+02
   8.420  0.2511E+01  0.3271E+02
   8.430  0.2516E+01  0.3273E+02
   8.440  0.2669E+01  0.3276E+02
   8.450  0.2636E+01  0.3279E+02
   8.460  0.2604E+01  0.3281E+02
   8.470  0.2523E+01  0.3284E+02
   8.480  0.2496E+01  0.3286E+02
   8.490  0.2469E+01  0.3289E+02
   8.500  0.2442E+01  0.3291E+02
   8.510  0.2414E+01  0.3294E+02
   8.520  0.2387E+01  0.3296E+02
   8.530  0.2412E+01  0.3298E+02
   8.540  0.2462E+01  0.3301E+02
   8.550  0.2509E+01  0.3303E+02
   8.560  0.2554E+01  0.3306E+02
   8.570  0.2597E+01  0.3309E+02
   8.580  0.2637E+01  0.3311E+02
   8.590  0.2675E+01  0.3314E+02
   8.600  0.2711E+01  0.3316E+02
   8.610  0.2744E+01  0.3319E+02
   8.620  0.3115E+01  0.3322E+02
   8.630  0.3114E+01  0.3325E+02
   8.640  0.3111E+01  0.3328E+02
   8.650  0.3105E+01  0.3331E+02
   8.660  0.3096E+01  0.3334E+02
   8.670  0.3098E+01  0.3338E+02
   8.680  0.3177E+01  0.3341E+02
   8.690  0.3259E+01  0.3344E+02
   8.700  0.3641E+01  0.3347E+02
   8.710  0.3586E+01  0.3351E+02
   8.720  0.3513E+01  0.3355E+02
   8.730  0.3421E+01  0.3358E+02
   8.740  0.3311E+01  0.3361E+02
   8.750  0.3183E+01  0.3365E+02
   8.760  0.3037E+01  0.3368E+02
   8.770  0.2873E+01  0.3371E+02
   8.780  0.2691E+01  0.3373E+02
   8.790  0.4673E+01  0.3377E+02
   8.800  0.3099E+01  0.3382E+02
   8.810  0.2743E+01  0.3386E+02
   8.820  0.2572E+01  0.3388E+02
   8.830  0.2391E+01  0.3391E+02
   8.840  0.2307E+01  0.3393E+02
   8.850  0.2347E+01  0.3396E+02
   8.860  0.2391E+01  0.3398E+02
   8.870  0.2439E+01  0.3400E+02
   8.880  0.2490E+01  0.3403E+02
   8.890  0.2544E+01  0.3405E+02
   8.900  0.2602E+01  0.3408E+02
   8.910  0.2663E+01  0.3410E+02
   8.920  0.2728E+01  0.3413E+02
   8.930  0.2797E+01  0.3416E+02
   8.940  0.2868E+01  0.3419E+02
   8.950  0.2944E+01  0.3422E+02
   8.960  0.3023E+01  0.3425E+02
   8.970  0.3146E+01  0.3428E+02
   8.980  0.3289E+01  0.3431E+02
   8.990  0.3443E+01  0.3434E+02
   9.000  0.3606E+01  0.3438E+02
   9.010  0.4243E+01  0.3442E+02
   9.020  0.4370E+01  0.3446E+02
   9.030  0.4509E+01  0.3450E+02
   9.040  0.4659E+01  0.3455E+02
   9.050  0.4820E+01  0.3460E+02
   9.060  0.5184E+01  0.3465E+02
   9.070  0.5130E+01  0.3470E+02
   9.080  0.5056E+01  0.3475E+02
   9.090  0.4961E+01  0.3480E+02
   9.100  0.4844E+01  0.3485E+02
   9.110  0.4717E+01  0.3490E+02
   9.120  0.5207E+01  0.3495E+02
   9.130  0.5681E+01  0.3500E+02
   9.140  0.6141E+01  0.3506E+02
   9.150  0.6641E+01  0.3513E+02
   9.160  0.7112E+01  0.3520E+02
   9.170  0.7834E+01  0.3527E+02
   9.180  0.7752E+01  0.3535E+02
   9.190  0.8417E+01  0.3543E+02
   9.200  0.8286E+01  0.3551E+02
   9.210  0.8162E+01  0.3560E+02
   9.220  0.8273E+01  0.3568E+02
   9.230  0.8107E+01  0.3576E+02
   9.240  0.7927E+01  0.3584E+02
   9.250  0.7754E+01  0.3592E+02
   9.260  0.7684E+01  0.3599E+02
   9.270  0.7564E+01  0.3607E+02
   9.280  0.7372E+01  0.3615E+02
   9.290  0.7108E+01  0.3622E+02
   9.300  0.6792E+01  0.3629E+02
   9.310  0.6592E+01  0.3635E+02
   9.320  0.6373E+01  0.3642E+02
   9.330  0.6163E+01  0.3648E+02
   9.340  0.6436E+01  0.3655E+02
   9.350  0.6358E+01  0.3661E+02
   9.360  0.6156E+01  0.3667E+02
   9.370  0.6090E+01  0.3673E+02
   9.380  0.6102E+01  0.3679E+02
   9.390  0.6143E+01  0.3686E+02
   9.400  0.6207E+01  0.3692E+02
   9.410  0.6281E+01  0.3698E+02
   9.420  0.6368E+01  0.3704E+02
   9.430  0.6219E+01  0.3711E+02
   9.440  0.6380E+01  0.3717E+02
   9.450  0.6668E+01  0.3723E+02
   9.460  0.7124E+01  0.3730E+02
   9.470  0.7751E+01  0.3738E+02
   9.480  0.8321E+01  0.3746E+02
   9.490  0.8544E+01  0.3754E+02
   9.500  0.8740E+01  0.3763E+02
   9.510  0.8175E+01  0.3771E+02
   9.520  0.7930E+01  0.3779E+02
   9.530  0.7729E+01  0.3787E+02
   9.540  0.7568E+01  0.3795E+02
   9.550  0.7444E+01  0.3802E+02
   9.560  0.8147E+01  0.3810E+02
   9.570  0.7718E+01  0.3818E+02
   9.580  0.7353E+01  0.3825E+02
   9.590  0.7052E+01  0.3832E+02
   9.600  0.6814E+01  0.3839E+02
   9.610  0.6664E+01  0.3846E+02
   9.620  0.6643E+01  0.3853E+02
   9.630  0.6308E+01  0.3860E+02
   9.640  0.4760E+01  0.3866E+02
   9.650  0.4629E+01  0.3870E+02
   9.660  0.4501E+01  0.3875E+02
   9.670  0.4377E+01  0.3879E+02
   9.680  0.4256E+01  0.3884E+02
   9.690  0.4138E+01  0.3888E+02
   9.700  0.4024E+01  0.3892E+02
   9.710  0.3918E+01  0.3896E+02
   9.720  0.3831E+01  0.3900E+02
   9.730  0.3762E+01  0.3904E+02
   9.740  0.3653E+01  0.3907E+02
   9.750  0.3547E+01  0.3911E+02
   9.760  0.3442E+01  0.3915E+02
   9.770  0.3340E+01  0.3918E+02
   9.780  0.3240E+01  0.3921E+02
   9.790  0.3142E+01  0.3924E+02
   9.800  0.3046E+01  0.3927E+02
   9.810  0.2953E+01  0.3930E+02
   9.820  0.2862E+01  0.3933E+02
   9.830  0.2773E+01  0.3936E+02
   9.840  0.2702E+01  0.3939E+02
   9.850  0.2711E+01  0.3942E+02
   9.860  0.2489E+01  0.3945E+02
   9.870  0.2749E+01  0.3948E+02
   9.880  0.2978E+01  0.3951E+02
   9.890  0.3170E+01  0.3954E+02
   9.900  0.3325E+01  0.3957E+02
   9.910  0.3444E+01  0.3961E+02
   9.920  0.3552E+01  0.3964E+02
   9.930  0.3773E+01  0.3968E+02
   9.940  0.3409E+01  0.3971E+02
   9.950  0.3203E+01  0.3975E+02
   9.960  0.2993E+01  0.3978E+02
   9.970  0.2778E+01  0.3981E+02
   9.980  0.2558E+01  0.3983E+02
   9.990  0.2338E+01  0.3986E+02
  10.000  0.2142E+01  0.3988E+02
  10.010  0.1943E+01  0.3990E+02
  10.020  0.1739E+01  0.3992E+02
  10.030  0.1532E+01  0.3994E+02
  10.040  0.1321E+01  0.3995E+02
  10.050  0.1106E+01  0.3996E+02
  10.060  0.8880E+00  0.3997E+02
  10.070  0.6832E+00  0.3998E+02
  10.080  0.5358E+00  0.3999E+02
  10.090  0.4220E+00  0.3999E+02
  10.100  0.3383E+00  0.3999E+02
  10.110  0.2833E+00  0.4000E+02
  10.120  0.7194E-01  0.4000E+02
  10.130  0.0000E+00  0.4000E+02
  10.140  0.0000E+00  0.4000E+02
  10.150  0.0000E+00  0.4000E+02
  10.160  0.0000E+00  0.4000E+02
  10.170  0.0000E+00  0.4000E+02
  10.180  0.0000E+00  0.4000E+02
  10.190  0.0000E+00  0.4000E+02
  10.200  0.0000E+00  0.4000E+02
  10.210  0.0000E+00  0.4000E+02
  10.220  0.0000E+00  0.4000E+02
  10.230  0.0000E+00  0.4000E+02
  10.240  0.0000E+00  0.4000E+02
  10.250  0.0000E+00  0.4000E+02
  10.260  0.0000E+00  0.4000E+02
  10.270  0.0000E+00  0.4000E+02
  10.280  0.0000E+00  0.4000E+02
  10.290  0.0000E+00  0.4000E+02
  10.300  0.0000E+00  0.4000E+02
  10.310  0.0000E+00  0.4000E+02
  10.320  0.0000E+00  0.4000E+02
  10.330  0.0000E+00  0.4000E+02
  10.340  0.0000E+00  0.4000E+02
  10.350  0.0000E+00  0.4000E+02
  10.360  0.0000E+00  0.4000E+02
  10.370  0.0000E+00  0.4000E+02
  10.380  0.0000E+00  0.4000E+02
  10.390  0.0000E+00  0.4000E+02
  10.400  0.0000E+00  0.4000E+02
  10.410  0.0000E+00  0.4000E+02
  10.420  0.0000E+00  0.4000E+02
  10.430  0.0000E+00  0.4000E+02
  10.440  0.0000E+00  0.4000E+02
  10.450  0.0000E+00  0.4000E+02
  10.460  0.0000E+00  0.4000E+02
  10.470  0.0000E+00  0.4000E+02
  10.480  0.0000E+00  0.4000E+02
  10.490  0.0000E+00  0.4000E+02
  10.500  0.0000E+00  0.4000E+02
  10.510  0.0000E+00  0.4000E+02
  10.520  0.0000E+00  0.4000E+02
  10.530  0.0000E+00  0.4000E+02
  10.540  0.0000E+00  0.4000E+02
  10.550  0.0000E+00  0.4000E+02
  10.560  0.0000E+00  0.4000E+02
  10.570  0.0000E+00  0.4000E+02
  10.580  0.0000E+00  0.4000E+02
  10.590  0.0000E+00  0.4000E+02
  10.600  0.0000E+00  0.4000E+02
  10.610  0.0000E+00  0.4000E+02
  10.620  0.0000E+00  0.4000E+02
  10.630  0.0000E+00  0.4000E+02
  10.640  0.0000E+00  0.4000E+02
  10.650  0.0000E+00  0.4000E+02
  10.660  0.0000E+00  0.4000E+02
  10.670  0.0000E+00  0.4000E+02
  10.680  0.0000E+00  0.4000E+02
  10.690  0.0000E+00  0.4000E+02
  10.700  0.0000E+00  0.4000E+02
  10.710  0.0000E+00  0.4000E+02
  10.720  0.0000E+00  0.4000E+02
  10.730  0.0000E+00  0.4000E+02
  10.740  0.0000E+00  0.4000E+02
  10.750  0.0000E+00  0.4000E+02
  10.760  0.0000E+00  0.4000E+02
  10.770  0.0000E+00  0.4000E+02
  10.780  0.0000E+00  0.4000E+02
  10.790  0.0000E+00  0.4000E+02
  10.800  0.0000E+00  0.4000E+02
  10.810  0.0000E+00  0.4000E+02
  10.820  0.0000E+00  0.4000E+02
  10.830  0.0000E+00  0.4000E+02
  10.840  0.0000E+00  0.4000E+02
  10.850  0.0000E+00  0.4000E+02
  10.860  0.0000E+00  0.4000E+02
  10.870  0.0000E+00  0.4000E+02
  10.880  0.0000E+00  0.4000E+02
  10.890  0.0000E+00  0.4000E+02
  10.900  0.0000E+00  0.4000E+02
  10.910  0.0000E+00  0.4000E+02
  10.920  0.0000E+00  0.4000E+02
  10.930  0.0000E+00  0.4000E+02
  10.940  0.0000E+00  0.4000E+02
  10.950  0.0000E+00  0.4000E+02
  10.960  0.0000E+00  0.4000E+02
  10.970  0.0000E+00  0.4000E+02
  10.980  0.0000E+00  0.4000E+02
  10.990  0.0000E+00  0.4000E+02
  11.000  0.0000E+00  0.4000E+02
  11.010  0.0000E+00  0.4000E+02
  11.020  0.0000E+00  0.4000E+02
  11.030  0.0000E+00  0.4000E+02
  11.040  0.0000E+00  0.4000E+02
  11.050  0.0000E+00  0.4000E+02
  11.060  0.0000E+00  0.4000E+02
  11.070  0.0000E+00  0.4000E+02
  11.080  0.0000E+00  0.4000E+02
  11.090  0.0000E+00  0.4000E+02
  11.100  0.0000E+00  0.4000E+02
  11.110  0.0000E+00  0.4000E+02
  11.120  0.0000E+00  0.4000E+02
  11.130  0.0000E+00  0.4000E+02
  11.140  0.0000E+00  0.4000E+02
  11.150  0.0000E+00  0.4000E+02
  11.160  0.0000E+00  0.4000E+02
  11.170  0.0000E+00  0.4000E+02
  11.180  0.0000E+00  0.4000E+02
  11.190  0.0000E+00  0.4000E+02
  11.200  0.0000E+00  0.4000E+02
  11.210  0.0000E+00  0.4000E+02
  11.220  0.0000E+00  0.4000E+02
  11.230  0.0000E+00  0.4000E+02
  11.240  0.0000E+00  0.4000E+02
  11.250  0.0000E+00  0.4000E+02
  11.260  0.0000E+00  0.4000E+02
  11.270  0.0000E+00  0.4000E+02
  11.280  0.0000E+00  0.4000E+02
  11.290  0.0000E+00  0.4000E+02
  11.300  0.0000E+00  0.4000E+02
  11.310  0.0000E+00  0.4000E+02
  11.320  0.0000E+00  0.4000E+02
  11.330  0.0000E+00  0.4000E+02
  11.340  0.0000E+00  0.4000E+02
  11.350  0.0000E+00  0.4000E+02
  11.360  0.0000E+00  0.4000E+02
  11.370  0.0000E+00  0.4000E+02
  11.380  0.0000E+00  0.4000E+02
  11.390  0.0000E+00  0.4000E+02
  11.400  0.0000E+00  0.4000E+02
  11.410  0.0000E+00  0.4000E+02
  11.420  0.0000E+00  0.4000E+02
  11.430  0.0000E+00  0.4000E+02
  11.440  0.0000E+00  0.4000E+02
  11.450  0.0000E+00  0.4000E+02
  11.460  0.0000E+00  0.4000E+02
  11.470  0.0000E+00  0.4000E+02
  11.480  0.0000E+00  0.4000E+02
  11.490  0.0000E+00  0.4000E+02
  11.500  0.0000E+00  0.4000E+02
  11.510  0.0000E+00  0.4000E+02
  11.520  0.0000E+00  0.4000E+02
  11.530  0.0000E+00  0.4000E+02
  11.540  0.0000E+00  0.4000E+02
  11.550  0.0000E+00  0.4000E+02
  11.560  0.0000E+00  0.4000E+02
  11.570  0.0000E+00  0.4000E+02
  11.580  0.0000E+00  0.4000E+02
  11.590  0.0000E+00  0.4000E+02
  11.600  0.0000E+00  0.4000E+02
  11.610  0.0000E+00  0.4000E+02
  11.620  0.0000E+00  0.4000E+02
  11.630  0.0000E+00  0.4000E+02
  11.640  0.0000E+00  0.4000E+02
  11.650  0.0000E+00  0.4000E+02
  11.660  0.0000E+00  0.4000E+02
  11.670  0.0000E+00  0.4000E+02
  11.680  0.0000E+00  0.4000E+02
  11.690  0.0000E+00  0.4000E+02
  11.700  0.0000E+00  0.4000E+02
  11.710  0.0000E+00  0.4000E+02
  11.720  0.0000E+00  0.4000E+02
  11.730  0.0000E+00  0.4000E+02
  11.740  0.0000E+00  0.4000E+02
  11.750  0.0000E+00  0.4000E+02
  11.760  0.0000E+00  0.4000E+02
  11.770  0.0000E+00  0.4000E+02
  11.780  0.0000E+00  0.4000E+02
  11.790  0.0000E+00  0.4000E+02
  11.800  0.0000E+00  0.4000E+02
  11.810  0.0000E+00  0.4000E+02
  11.820  0.0000E+00  0.4000E+02
  11.830  0.0000E+00  0.4000E+02
  11.840  0.0000E+00  0.4000E+02
  11.850  0.0000E+00  0.4000E+02
  11.860  0.0000E+00  0.4000E+02
  11.870  0.0000E+00  0.4000E+02
  11.880  0.0000E+00  0.4000E+02
  11.890  0.0000E+00  0.4000E+02
  11.900  0.0000E+00  0.4000E+02
  11.910  0.0000E+00  0.4000E+02
  11.920  0.0000E+00  0.4000E+02
  11.930  0.0000E+00  0.4000E+02
  11.940  0.0000E+00  0.4000E+02
  11.950  0.0000E+00  0.4000E+02
  11.960  0.0000E+00  0.4000E+02
  11.970  0.0000E+00  0.4000E+02
  11.980  0.0000E+00  0.4000E+02
  11.990  0.0000E+00  0.4000E+02
  12.000  0.0000E+00  0.4000E+02
  12.010  0.0000E+00  0.4000E+02
  12.020  0.0000E+00  0.4000E+02
  12.030  0.0000E+00  0.4000E+02
  12.040  0.0000E+00  0.4000E+02
  12.050  0.0000E+00  0.4000E+02
  12.060  0.0000E+00  0.4000E+02
  12.070  0.0000E+00  0.4000E+02
  12.080  0.6252E+00  0.4001E+02
  12.090  0.7379E+00  0.4002E+02
  12.100  0.8540E+00  0.4002E+02
  12.110  0.9735E+00  0.4003E+02
  12.120  0.1225E+01  0.4006E+02
  12.130  0.1357E+01  0.4007E+02
  12.140  0.1106E+01  0.4008E+02
  12.150  0.1163E+01  0.4009E+02
  12.160  0.1222E+01  0.4011E+02
  12.170  0.1281E+01  0.4012E+02
  12.180  0.1342E+01  0.4013E+02
  12.190  0.2266E+01  0.4015E+02
  12.200  0.2390E+01  0.4017E+02
  12.210  0.2516E+01  0.4019E+02
  12.220  0.9983E+00  0.4020E+02
  12.230  0.1013E+01  0.4021E+02
  12.240  0.1028E+01  0.4022E+02
  12.250  0.1043E+01  0.4024E+02
  12.260  0.1058E+01  0.4025E+02
  12.270  0.1072E+01  0.4026E+02
  12.280  0.1087E+01  0.4027E+02
  12.290  0.1102E+01  0.4028E+02
  12.300  0.1117E+01  0.4029E+02
  12.310  0.1132E+01  0.4030E+02
  12.320  0.1147E+01  0.4031E+02
  12.330  0.1162E+01  0.4032E+02
  12.340  0.1177E+01  0.4034E+02
  12.350  0.1192E+01  0.4035E+02
  12.360  0.1207E+01  0.4036E+02
  12.370  0.1223E+01  0.4037E+02
  12.380  0.1238E+01  0.4038E+02
  12.390  0.1253E+01  0.4040E+02
  12.400  0.1268E+01  0.4041E+02
  12.410  0.1283E+01  0.4042E+02
  12.420  0.1299E+01  0.4043E+02
  12.430  0.1314E+01  0.4045E+02
  12.440  0.1329E+01  0.4046E+02
  12.450  0.1344E+01  0.4047E+02
  12.460  0.1360E+01  0.4049E+02
  12.470  0.1375E+01  0.4050E+02
  12.480  0.1391E+01  0.4051E+02
  12.490  0.1406E+01  0.4053E+02
  12.500  0.1422E+01  0.4054E+02
  12.510  0.1437E+01  0.4056E+02
  12.520  0.1453E+01  0.4057E+02
  12.530  0.1468E+01  0.4059E+02
  12.540  0.1484E+01  0.4060E+02
  12.550  0.1499E+01  0.4062E+02
  12.560  0.1515E+01  0.4063E+02
  12.570  0.1530E+01  0.4065E+02
  12.580  0.1546E+01  0.4066E+02
  12.590  0.1562E+01  0.4068E+02
  12.600  0.1578E+01  0.4069E+02
  12.610  0.1593E+01  0.4071E+02
  12.620  0.1609E+01  0.4072E+02
  12.630  0.1625E+01  0.4074E+02
  12.640  0.1641E+01  0.4076E+02
  12.650  0.1686E+01  0.4077E+02
  12.660  0.1738E+01  0.4079E+02
  12.670  0.1791E+01  0.4081E+02
  12.680  0.2270E+01  0.4083E+02
  12.690  0.2351E+01  0.4085E+02
  12.700  0.2417E+01  0.4088E+02
  12.710  0.2469E+01  0.4090E+02
  12.720  0.2508E+01  0.4093E+02
  12.730  0.2532E+01  0.4095E+02
  12.740  0.2195E+01  0.4098E+02
  12.750  0.2159E+01  0.4100E+02
  12.760  0.2117E+01  0.4102E+02
  12.770  0.2129E+01  0.4104E+02
  12.780  0.2142E+01  0.4106E+02
  12.790  0.2155E+01  0.4108E+02
  12.800  0.2168E+01  0.4110E+02
  12.810  0.2181E+01  0.4113E+02
  12.820  0.2195E+01  0.4115E+02
  12.830  0.2208E+01  0.4117E+02
  12.840  0.2222E+01  0.4119E+02
  12.850  0.2236E+01  0.4121E+02
  12.860  0.2250E+01  0.4124E+02
  12.870  0.2264E+01  0.4126E+02
  12.880  0.2278E+01  0.4128E+02
  12.890  0.2292E+01  0.4130E+02
  12.900  0.2307E+01  0.4133E+02
  12.910  0.2322E+01  0.4135E+02
  12.920  0.2337E+01  0.4137E+02
  12.930  0.2352E+01  0.4140E+02
  12.940  0.2367E+01  0.4142E+02
  12.950  0.2382E+01  0.4144E+02
  12.960  0.2395E+01  0.4147E+02
  12.970  0.2405E+01  0.4149E+02
  12.980  0.2417E+01  0.4152E+02
  12.990  0.2430E+01  0.4154E+02
  13.000  0.2445E+01  0.4157E+02
  13.010  0.2460E+01  0.4159E+02
  13.020  0.2477E+01  0.4161E+02
  13.030  0.2494E+01  0.4164E+02
  13.040  0.2513E+01  0.4166E+02
  13.050  0.2531E+01  0.4169E+02
  13.060  0.2550E+01  0.4172E+02
  13.070  0.2568E+01  0.4174E+02
  13.080  0.2586E+01  0.4177E+02
  13.090  0.2605E+01  0.4179E+02
  13.100  0.2626E+01  0.4182E+02
  13.110  0.2650E+01  0.4184E+02
  13.120  0.2675E+01  0.4187E+02
  13.130  0.2702E+01  0.4190E+02
  13.140  0.2728E+01  0.4193E+02
  13.150  0.2755E+01  0.4195E+02
  13.160  0.2781E+01  0.4198E+02
  13.170  0.2808E+01  0.4201E+02
  13.180  0.2834E+01  0.4204E+02
  13.190  0.2861E+01  0.4207E+02
  13.200  0.2888E+01  0.4209E+02
  13.210  0.2915E+01  0.4212E+02
  13.220  0.2942E+01  0.4215E+02
  13.230  0.2969E+01  0.4218E+02
  13.240  0.2996E+01  0.4221E+02
  13.250  0.3023E+01  0.4224E+02
  13.260  0.3050E+01  0.4227E+02
  13.270  0.3077E+01  0.4230E+02
  13.280  0.3104E+01  0.4233E+02
  13.290  0.3131E+01  0.4236E+02
  13.300  0.3158E+01  0.4240E+02
  13.310  0.3480E+01  0.4243E+02
  13.320  0.3903E+01  0.4247E+02
  13.330  0.4894E+01  0.4251E+02
  13.340  0.5227E+01  0.4256E+02
  13.350  0.5568E+01  0.4262E+02
  13.360  0.5046E+01  0.4267E+02
  13.370  0.5126E+01  0.4272E+02
  13.380  0.5217E+01  0.4277E+02
  13.390  0.5349E+01  0.4282E+02
  13.400  0.5483E+01  0.4288E+02
  13.410  0.5619E+01  0.4293E+02
  13.420  0.5756E+01  0.4299E+02
  13.430  0.5953E+01  0.4305E+02
  13.440  0.6102E+01  0.4311E+02
  13.450  0.6250E+01  0.4317E+02
  13.460  0.6396E+01  0.4323E+02
  13.470  0.6540E+01  0.4330E+02
  13.480  0.6690E+01  0.4336E+02
  13.490  0.6845E+01  0.4343E+02
  13.500  0.6990E+01  0.4350E+02
  13.510  0.7123E+01  0.4357E+02
  13.520  0.7251E+01  0.4364E+02
  13.530  0.7375E+01  0.4372E+02
  13.540  0.7494E+01  0.4379E+02
  13.550  0.7617E+01  0.4387E+02
  13.560  0.7734E+01  0.4394E+02
  13.570  0.7845E+01  0.4402E+02
  13.580  0.7338E+01  0.4410E+02
  13.590  0.6867E+01  0.4417E+02
  13.600  0.6438E+01  0.4423E+02
  13.610  0.5941E+01  0.4431E+02
  13.620  0.5753E+01  0.4437E+02
  13.630  0.5562E+01  0.4443E+02
  13.640  0.5369E+01  0.4448E+02
  13.650  0.5173E+01  0.4454E+02
  13.660  0.4976E+01  0.4459E+02
  13.670  0.4822E+01  0.4464E+02
  13.680  0.4693E+01  0.4468E+02
  13.690  0.4582E+01  0.4473E+02
  13.700  0.4491E+01  0.4477E+02
  13.710  0.4400E+01  0.4482E+02
  13.720  0.4312E+01  0.4486E+02
  13.730  0.4227E+01  0.4491E+02
  13.740  0.4140E+01  0.4495E+02
  13.750  0.4053E+01  0.4499E+02
  13.760  0.3965E+01  0.4503E+02
  13.770  0.3876E+01  0.4507E+02
  13.780  0.3789E+01  0.4511E+02
  13.790  0.3720E+01  0.4514E+02
  13.800  0.3670E+01  0.4518E+02
  13.810  0.3638E+01  0.4522E+02
  13.820  0.3608E+01  0.4525E+02
  13.830  0.3578E+01  0.4529E+02
  13.840  0.3545E+01  0.4532E+02
  13.850  0.3511E+01  0.4536E+02
  13.860  0.3476E+01  0.4539E+02
  13.870  0.3439E+01  0.4543E+02
  13.880  0.3446E+01  0.4546E+02
  13.890  0.3392E+01  0.4550E+02
  13.900  0.3335E+01  0.4553E+02
  13.910  0.3275E+01  0.4556E+02
  13.920  0.3201E+01  0.4560E+02
  13.930  0.3095E+01  0.4563E+02
  13.940  0.2983E+01  0.4566E+02
  13.950  0.2844E+01  0.4569E+02
  13.960  0.2692E+01  0.4572E+02
  13.970  0.2536E+01  0.4574E+02
  13.980  0.2377E+01  0.4577E+02
  13.990  0.2214E+01  0.4579E+02
  14.000  0.2048E+01  0.4581E+02
  14.010  0.1901E+01  0.4583E+02
  14.020  0.1776E+01  0.4585E+02
  14.030  0.1656E+01  0.4587E+02
  14.040  0.1621E+01  0.4588E+02
  14.050  0.1624E+01  0.4590E+02
  14.060  0.1527E+01  0.4591E+02
  14.070  0.1329E+01  0.4593E+02
  14.080  0.1030E+01  0.4594E+02
  14.090  0.9053E+00  0.4595E+02
  14.100  0.7993E+00  0.4596E+02
  14.110  0.7014E+00  0.4597E+02
  14.120  0.6118E+00  0.4597E+02
  14.130  0.5303E+00  0.4598E+02
  14.140  0.4570E+00  0.4598E+02
  14.150  0.3919E+00  0.4599E+02
  14.160  0.3350E+00  0.4599E+02
  14.170  0.2863E+00  0.4599E+02
  14.180  0.2190E+00  0.4600E+02
  14.190  0.1256E+00  0.4600E+02
  14.200  0.5795E-01  0.4600E+02
  14.210  0.1630E+02  0.4607E+02
  14.220  0.9745E+00  0.4614E+02
  14.230  0.9798E+00  0.4615E+02
  14.240  0.9851E+00  0.4616E+02
  14.250  0.9904E+00  0.4617E+02
  14.260  0.9954E+00  0.4618E+02
  14.270  0.1000E+01  0.4619E+02
  14.280  0.1005E+01  0.4620E+02
  14.290  0.1010E+01  0.4621E+02
  14.300  0.1015E+01  0.4622E+02
  14.310  0.1019E+01  0.4623E+02
  14.320  0.1023E+01  0.4624E+02
  14.330  0.1028E+01  0.4625E+02
  14.340  0.1032E+01  0.4626E+02
  14.350  0.1036E+01  0.4627E+02
  14.360  0.1039E+01  0.4628E+02
  14.370  0.1043E+01  0.4629E+02
  14.380  0.1047E+01  0.4630E+02
  14.390  0.1050E+01  0.4631E+02
  14.400  0.1053E+01  0.4632E+02
  14.410  0.1057E+01  0.4633E+02
  14.420  0.1060E+01  0.4634E+02
  14.430  0.1063E+01  0.4635E+02
  14.440  0.1065E+01  0.4636E+02
  14.450  0.1068E+01  0.4638E+02
  14.460  0.1071E+01  0.4639E+02
  14.470  0.1073E+01  0.4640E+02
  14.480  0.1075E+01  0.4641E+02
  14.490  0.1077E+01  0.4642E+02
  14.500  0.1079E+01  0.4643E+02
  14.510  0.1081E+01  0.4644E+02
  14.520  0.1083E+01  0.4645E+02
  14.530  0.1085E+01  0.4646E+02
  14.540  0.1086E+01  0.4647E+02
  14.550  0.1088E+01  0.4648E+02
  14.560  0.1089E+01  0.4649E+02
  14.570  0.1090E+01  0.4651E+02
  14.580  0.1091E+01  0.4652E+02
  14.590  0.1092E+01  0.4653E+02
  14.600  0.1093E+01  0.4654E+02
  14.610  0.1120E+01  0.4655E+02
  14.620  0.1157E+01  0.4656E+02
  14.630  0.1195E+01  0.4657E+02
  14.640  0.1234E+01  0.4658E+02
  14.650  0.1275E+01  0.4660E+02
  14.660  0.1317E+01  0.4661E+02
  14.670  0.1360E+01  0.4662E+02
  14.680  0.1404E+01  0.4664E+02
  14.690  0.1450E+01  0.4665E+02
  14.700  0.1529E+01  0.4667E+02
  14.710  0.1526E+01  0.4668E+02
  14.720  0.1523E+01  0.4670E+02
  14.730  0.1520E+01  0.4671E+02
  14.740  0.1516E+01  0.4673E+02
  14.750  0.1511E+01  0.4674E+02
  14.760  0.1506E+01  0.4676E+02
  14.770  0.1501E+01  0.4677E+02
  14.780  0.1495E+01  0.4679E+02
  14.790  0.1489E+01  0.4680E+02
  14.800  0.1482E+01  0.4682E+02
  14.810  0.1475E+01  0.4683E+02
  14.820  0.1467E+01  0.4685E+02
  14.830  0.1459E+01  0.4686E+02
  14.840  0.1451E+01  0.4687E+02
  14.850  0.1442E+01  0.4689E+02
  14.860  0.1433E+01  0.4690E+02
  14.870  0.1423E+01  0.4692E+02
  14.880  0.1412E+01  0.4693E+02
  14.890  0.1402E+01  0.4695E+02
  14.900  0.1639E+01  0.4696E+02
  14.910  0.2018E+01  0.4698E+02
  14.920  0.2403E+01  0.4700E+02
  14.930  0.2608E+01  0.4703E+02
  14.940  0.2171E+01  0.4705E+02
  14.950  0.1725E+01  0.4707E+02
  14.960  0.1269E+01  0.4709E+02
  14.970  0.8814E+00  0.4710E+02
  14.980  0.8760E+00  0.4710E+02
  14.990  0.8707E+00  0.4711E+02
  15.000  0.8653E+00  0.4712E+02
  15.010  0.8599E+00  0.4713E+02
  15.020  0.8546E+00  0.4714E+02
  15.030  0.8493E+00  0.4715E+02
  15.040  0.8439E+00  0.4716E+02
  15.050  0.8386E+00  0.4716E+02
  15.060  0.8333E+00  0.4717E+02
  15.070  0.8280E+00  0.4718E+02
  15.080  0.8228E+00  0.4719E+02
  15.090  0.8175E+00  0.4720E+02
  15.100  0.8122E+00  0.4721E+02
  15.110  0.8070E+00  0.4721E+02
  15.120  0.8017E+00  0.4722E+02
  15.130  0.7965E+00  0.4723E+02
  15.140  0.7913E+00  0.4724E+02
  15.150  0.7861E+00  0.4725E+02
  15.160  0.7809E+00  0.4725E+02
  15.170  0.7757E+00  0.4726E+02
  15.180  0.7705E+00  0.4727E+02
  15.190  0.7653E+00  0.4728E+02
  15.200  0.7602E+00  0.4728E+02
  15.210  0.7550E+00  0.4729E+02
  15.220  0.7499E+00  0.4730E+02
  15.230  0.7448E+00  0.4731E+02
  15.240  0.7397E+00  0.4731E+02
  15.250  0.7346E+00  0.4732E+02
  15.260  0.7295E+00  0.4733E+02
  15.270  0.7244E+00  0.4734E+02
  15.280  0.7193E+00  0.4734E+02
  15.290  0.7142E+00  0.4735E+02
  15.300  0.7092E+00  0.4736E+02
  15.310  0.7041E+00  0.4737E+02
  15.320  0.6991E+00  0.4737E+02
  15.330  0.6941E+00  0.4738E+02
  15.340  0.6890E+00  0.4739E+02
  15.350  0.6840E+00  0.4739E+02
  15.360  0.6790E+00  0.4740E+02
  15.370  0.6741E+00  0.4741E+02
  15.380  0.6691E+00  0.4741E+02
  15.390  0.6641E+00  0.4742E+02
  15.400  0.6592E+00  0.4743E+02
  15.410  0.6542E+00  0.4743E+02
  15.420  0.6493E+00  0.4744E+02
  15.430  0.6444E+00  0.4745E+02
  15.440  0.6395E+00  0.4745E+02
  15.450  0.6346E+00  0.4746E+02
  15.460  0.6297E+00  0.4747E+02
  15.470  0.6248E+00  0.4747E+02
  15.480  0.6199E+00  0.4748E+02
  15.490  0.6150E+00  0.4748E+02
  15.500  0.6102E+00  0.4749E+02
  15.510  0.6064E+00  0.4750E+02
  15.520  0.6349E+00  0.4750E+02
  15.530  0.6511E+00  0.4751E+02
  15.540  0.6471E+00  0.4752E+02
  15.550  0.6414E+00  0.4752E+02
  15.560  0.6357E+00  0.4753E+02
  15.570  0.6301E+00  0.4753E+02
  15.580  0.6245E+00  0.4754E+02
  15.590  0.6190E+00  0.4755E+02
  15.600  0.6134E+00  0.4755E+02
  15.610  0.6079E+00  0.4756E+02
  15.620  0.6025E+00  0.4757E+02
  15.630  0.5970E+00  0.4757E+02
  15.640  0.5916E+00  0.4758E+02
  15.650  0.5862E+00  0.4758E+02
  15.660  0.5809E+00  0.4759E+02
  15.670  0.5756E+00  0.4759E+02
  15.680  0.5703E+00  0.4760E+02
  15.690  0.5651E+00  0.4761E+02
  15.700  0.5599E+00  0.4761E+02
  15.710  0.5547E+00  0.4762E+02
  15.720  0.5495E+00  0.4762E+02
  15.730  0.5444E+00  0.4763E+02
  15.740  0.5393E+00  0.4763E+02
  15.750  0.5343E+00  0.4764E+02
  15.760  0.5293E+00  0.4764E+02
  15.770  0.5243E+00  0.4765E+02
  15.780  0.5193E+00  0.4765E+02
  15.790  0.5144E+00  0.4766E+02
  15.800  0.5095E+00  0.4767E+02
  15.810  0.5047E+00  0.4767E+02
  15.820  0.4998E+00  0.4768E+02
  15.830  0.4950E+00  0.4768E+02
  15.840  0.4903E+00  0.4768E+02
  15.850  0.4855E+00  0.4769E+02
  15.860  0.4808E+00  0.4769E+02
  15.870  0.4762E+00  0.4770E+02
  15.880  0.4715E+00  0.4770E+02
  15.890  0.4477E+00  0.4771E+02
  15.900  0.4014E+00  0.4771E+02
  15.910  0.3619E+00  0.4772E+02
  15.920  0.3618E+00  0.4772E+02
  15.930  0.3605E+00  0.4772E+02
  15.940  0.3581E+00  0.4773E+02
  15.950  0.3555E+00  0.4773E+02
  15.960  0.3528E+00  0.4773E+02
  15.970  0.3502E+00  0.4774E+02
  15.980  0.3476E+00  0.4774E+02
  15.990  0.3450E+00  0.4775E+02
  16.000  0.3424E+00  0.4775E+02
